##TITLE=No Description
##DATA TYPE=INFRARED SPECTRUM
##XUNITS=1/CM
##YUNITS=%T
400.236149  	147.695198 
401.200574  	112.176395 
402.164998  	89.122084 
403.129423  	80.672513 
404.093847  	69.242699 
405.058272  	79.087318 
406.022696  	93.612446 
406.987120  	95.543471 
407.951545  	101.292042 
408.915969  	93.643294 
409.880394  	93.945886 
410.844818  	100.366612 
411.809243  	102.410760 
412.773667  	96.218589 
413.738092  	84.671129 
414.702516  	77.113095 
415.666941  	77.253184 
416.631365  	84.848814 
417.595789  	93.564672 
418.560214  	100.586851 
419.524638  	96.810322 
420.489063  	88.402500 
421.453487  	83.851819 
422.417912  	84.276660 
423.382336  	86.969067 
424.346761  	82.855386 
425.311185  	77.255338 
426.275610  	78.116617 
427.240034  	78.809789 
428.204458  	80.470998 
429.168883  	82.440091 
430.133307  	81.305570 
431.097732  	78.610225 
432.062156  	77.391011 
433.026581  	77.230897 
433.991005  	78.406823 
434.955430  	80.268555 
435.919854  	80.528883 
436.884279  	79.422730 
437.848703  	80.252260 
438.813127  	81.308487 
439.777552  	80.956411 
440.741976  	82.062586 
441.706401  	82.632877 
442.670825  	82.250077 
443.635250  	82.678541 
444.599674  	82.583170 
445.564099  	82.968327 
446.528523  	83.513979 
447.492948  	83.580818 
448.457372  	85.670028 
449.421796  	85.062988 
450.386221  	84.041250 
451.350645  	84.240380 
452.315070  	83.446584 
453.279494  	83.815583 
454.243919  	84.086764 
455.208343  	84.090087 
456.172768  	84.109905 
457.137192  	83.908469 
458.101617  	83.861191 
459.066041  	83.883880 
460.030466  	83.719255 
460.994890  	83.850456 
461.959314  	84.229736 
462.923739  	84.340498 
463.888163  	83.426344 
464.852588  	82.824963 
465.817012  	83.187303 
466.781437  	83.102658 
467.745861  	82.414520 
468.710286  	82.461588 
469.674710  	82.352833 
470.639135  	82.380391 
471.603559  	82.668568 
472.567983  	82.920322 
473.532408  	83.010401 
474.496832  	82.563004 
475.461257  	82.206176 
476.425681  	81.703133 
477.390106  	83.037426 
478.354530  	84.022742 
479.318955  	82.950185 
480.283379  	82.197771 
481.247804  	82.405383 
482.212228  	82.042525 
483.176652  	82.255536 
484.141077  	83.182924 
485.105501  	82.611670 
486.069926  	81.839084 
487.034350  	82.174303 
487.998775  	81.858847 
488.963199  	81.660795 
489.927624  	82.322592 
490.892048  	82.230034 
491.856473  	81.511793 
492.820897  	81.394915 
493.785321  	81.415949 
494.749746  	80.841245 
495.714170  	80.705672 
496.678595  	80.490183 
497.643019  	80.004809 
498.607444  	80.065361 
499.571868  	79.481624 
500.536293  	78.904703 
501.500717  	78.475081 
502.465142  	78.144003 
503.429566  	78.749210 
504.393990  	78.920454 
505.358415  	78.861193 
506.322839  	78.372382 
507.287264  	78.699105 
508.251688  	80.082626 
509.216113  	81.233273 
510.180537  	81.704809 
511.144962  	82.310068 
512.109386  	82.703157 
513.073811  	82.935534 
514.038235  	82.986022 
515.002660  	82.492315 
515.967084  	81.456636 
516.931508  	81.136386 
517.895933  	82.230103 
518.860357  	82.840974 
519.824782  	82.273209 
520.789206  	82.503712 
521.753631  	82.914154 
522.718055  	83.107216 
523.682480  	82.920405 
524.646904  	82.712796 
525.611329  	82.519062 
526.575753  	82.587792 
527.540177  	83.046564 
528.504602  	83.188566 
529.469026  	83.375407 
530.433451  	83.593454 
531.397875  	83.559898 
532.362300  	83.491016 
533.326724  	83.843588 
534.291149  	83.856710 
535.255573  	83.940484 
536.219998  	84.030024 
537.184422  	84.273213 
538.148846  	83.976955 
539.113271  	83.679173 
540.077695  	83.570301 
541.042120  	84.013254 
542.006544  	84.291949 
542.970969  	84.113230 
543.935393  	84.332077 
544.899818  	84.219575 
545.864242  	84.195603 
546.828667  	84.372426 
547.793091  	84.192716 
548.757515  	84.095574 
549.721940  	84.380943 
550.686364  	84.278805 
551.650789  	84.663715 
552.615213  	84.508522 
553.579638  	84.458971 
554.544062  	84.423220 
555.508487  	84.423504 
556.472911  	84.250830 
557.437336  	84.228402 
558.401760  	84.509315 
559.366184  	84.764853 
560.330609  	84.311159 
561.295033  	83.895111 
562.259458  	83.976313 
563.223882  	83.941137 
564.188307  	84.007512 
565.152731  	84.241633 
566.117156  	83.992307 
567.081580  	83.594666 
568.046005  	83.666191 
569.010429  	83.686466 
569.974853  	83.740253 
570.939278  	83.808413 
571.903702  	83.929232 
572.868127  	83.940994 
573.832551  	83.687996 
574.796976  	83.691936 
575.761400  	83.330104 
576.725825  	83.396202 
577.690249  	83.609871 
578.654674  	83.612515 
579.619098  	83.428437 
580.583523  	83.244691 
581.547947  	83.556574 
582.512371  	83.773459 
583.476796  	83.638948 
584.441220  	83.365461 
585.405645  	83.354138 
586.370069  	83.900726 
587.334494  	83.956076 
588.298918  	83.672447 
589.263343  	83.485407 
590.227767  	83.525903 
591.192192  	83.153985 
592.156616  	82.909610 
593.121040  	83.278662 
594.085465  	83.520910 
595.049889  	83.585814 
596.014314  	83.584428 
596.978738  	83.555841 
597.943163  	83.593893 
598.907587  	83.360729 
599.872012  	83.064068 
600.836436  	83.188555 
601.800861  	83.339653 
602.765285  	83.300990 
603.729709  	83.240571 
604.694134  	83.241882 
605.658558  	83.303179 
606.622983  	83.231149 
607.587407  	83.057228 
608.551832  	83.144650 
609.516256  	83.207633 
610.480681  	82.931769 
611.445105  	82.793425 
612.409530  	82.931650 
613.373954  	83.067249 
614.338378  	82.826114 
615.302803  	82.605669 
616.267227  	82.573151 
617.231652  	82.820740 
618.196076  	82.773338 
619.160501  	82.583741 
620.124925  	82.218372 
621.089350  	82.104163 
622.053774  	82.128806 
623.018199  	82.376156 
623.982623  	82.253808 
624.947047  	82.068491 
625.911472  	81.972827 
626.875896  	82.010502 
627.840321  	81.868714 
628.804745  	81.791095 
629.769170  	81.437869 
630.733594  	80.838347 
631.698019  	80.703702 
632.662443  	80.913148 
633.626868  	81.210368 
634.591292  	81.590374 
635.555717  	81.571925 
636.520141  	81.766526 
637.484565  	81.771867 
638.448990  	81.652638 
639.413414  	81.542502 
640.377839  	81.622133 
641.342263  	81.640420 
642.306688  	81.483938 
643.271112  	81.441684 
644.235537  	81.445352 
645.199961  	81.354187 
646.164386  	81.345197 
647.128810  	81.318558 
648.093234  	81.160888 
649.057659  	81.012214 
650.022083  	80.952179 
650.986508  	80.996149 
651.950932  	80.944320 
652.915357  	80.649856 
653.879781  	80.528561 
654.844206  	80.684908 
655.808630  	80.733210 
656.773055  	80.364413 
657.737479  	80.287432 
658.701903  	80.229878 
659.666328  	80.090742 
660.630752  	80.061271 
661.595177  	80.078757 
662.559601  	79.969224 
663.524026  	79.862217 
664.488450  	79.817637 
665.452875  	79.665140 
666.417299  	79.511457 
667.381724  	79.309744 
668.346148  	78.087568 
669.310572  	78.237179 
670.274997  	78.677657 
671.239421  	78.835194 
672.203846  	78.767493 
673.168270  	78.519504 
674.132695  	78.187382 
675.097119  	77.907067 
676.061544  	77.602606 
677.025968  	77.272702 
677.990393  	77.064784 
678.954817  	77.008626 
679.919241  	76.945926 
680.883666  	76.854266 
681.848090  	76.736000 
682.812515  	76.721530 
683.776939  	76.593604 
684.741364  	76.420926 
685.705788  	76.279761 
686.670213  	76.223290 
687.634637  	75.892287 
688.599062  	75.514521 
689.563486  	75.293377 
690.527910  	75.069599 
691.492335  	74.695885 
692.456759  	74.364421 
693.421184  	73.974584 
694.385608  	73.526854 
695.350033  	73.016676 
696.314457  	72.528626 
697.278882  	71.860423 
698.243306  	71.073972 
699.207731  	70.283531 
700.172155  	69.586860 
701.136580  	68.858366 
702.101004  	68.172039 
703.065428  	67.589823 
704.029853  	66.982819 
704.994277  	66.307580 
705.958702  	65.593229 
706.923126  	64.846385 
707.887551  	64.103990 
708.851975  	63.426906 
709.816400  	62.453692 
710.780824  	61.319438 
711.745249  	60.245235 
712.709673  	59.092941 
713.674097  	57.844152 
714.638522  	56.480609 
715.602946  	54.973311 
716.567371  	53.287981 
717.531795  	51.705090 
718.496220  	50.185151 
719.460644  	48.757646 
720.425069  	47.497851 
721.389493  	46.634765 
722.353918  	46.144504 
723.318342  	46.061202 
724.282766  	46.672963 
725.247191  	48.264444 
726.211615  	50.544404 
727.176040  	53.144002 
728.140464  	55.747425 
729.104889  	58.414168 
730.069313  	61.067460 
731.033738  	63.755032 
731.998162  	66.420786 
732.962587  	69.210442 
733.927011  	71.972673 
734.891435  	74.558375 
735.855860  	77.177653 
736.820284  	79.687913 
737.784709  	81.928260 
738.749133  	83.825913 
739.713558  	85.333665 
740.677982  	86.595073 
741.642407  	87.527546 
742.606831  	88.176974 
743.571256  	88.563932 
744.535680  	88.738167 
745.500104  	88.897407 
746.464529  	88.988070 
747.428953  	88.907985 
748.393378  	88.851231 
749.357802  	88.646869 
750.322227  	88.530942 
751.286651  	88.488850 
752.251076  	88.367644 
753.215500  	88.221770 
754.179925  	88.094266 
755.144349  	87.973062 
756.108774  	87.918972 
757.073198  	87.788745 
758.037622  	87.636266 
759.002047  	87.390773 
759.966471  	87.252614 
760.930896  	87.117948 
761.895320  	86.945027 
762.859745  	86.890213 
763.824169  	86.878704 
764.788594  	86.734395 
765.753018  	86.509050 
766.717443  	86.340777 
767.681867  	86.173717 
768.646291  	85.962062 
769.610716  	85.827646 
770.575140  	85.691383 
771.539565  	85.510085 
772.503989  	85.194055 
773.468414  	85.020450 
774.432838  	84.978149 
775.397263  	84.904627 
776.361687  	84.725513 
777.326112  	84.668081 
778.290536  	84.550568 
779.254960  	84.432271 
780.219385  	84.235918 
781.183809  	84.090403 
782.148234  	83.664801 
783.112658  	83.656689 
784.077083  	83.500732 
785.041507  	83.139018 
786.005932  	82.918801 
786.970356  	82.590826 
787.934781  	82.232333 
788.899205  	81.963051 
789.863629  	81.722484 
790.828054  	81.450540 
791.792478  	81.170937 
792.756903  	81.044832 
793.721327  	81.238018 
794.685752  	81.638844 
795.650176  	82.259096 
796.614601  	82.868912 
797.579025  	83.296195 
798.543450  	83.354444 
799.507874  	83.375327 
800.472298  	83.415009 
801.436723  	83.347942 
802.401147  	83.206246 
803.365572  	83.114984 
804.329996  	83.084029 
805.294421  	83.029730 
806.258845  	82.936100 
807.223270  	82.936545 
808.187694  	82.972895 
809.152119  	82.930701 
810.116543  	82.854194 
811.080967  	82.798591 
812.045392  	82.756349 
813.009816  	82.738453 
813.974241  	82.741172 
814.938665  	82.714922 
815.903090  	82.640999 
816.867514  	82.540396 
817.831939  	82.495776 
818.796363  	82.481983 
819.760788  	82.433425 
820.725212  	82.384068 
821.689637  	82.246112 
822.654061  	82.094212 
823.618485  	81.914186 
824.582910  	81.803874 
825.547334  	81.686999 
826.511759  	81.518313 
827.476183  	81.418729 
828.440608  	81.284746 
829.405032  	80.997821 
830.369457  	80.778222 
831.333881  	80.645840 
832.298306  	80.459133 
833.262730  	80.207163 
834.227154  	79.967579 
835.191579  	79.690557 
836.156003  	79.386614 
837.120428  	79.071197 
838.084852  	78.758207 
839.049277  	78.525060 
840.013701  	78.269058 
840.978126  	77.903637 
841.942550  	77.554252 
842.906975  	77.221309 
843.871399  	76.885813 
844.835823  	76.588011 
845.800248  	76.383165 
846.764672  	76.362635 
847.729097  	76.651987 
848.693521  	76.907478 
849.657946  	77.241600 
850.622370  	77.704824 
851.586795  	78.056388 
852.551219  	78.157589 
853.515644  	78.320148 
854.480068  	78.570167 
855.444492  	78.678464 
856.408917  	78.748802 
857.373341  	78.871857 
858.337766  	79.054466 
859.302190  	79.107370 
860.266615  	79.061316 
861.231039  	78.978884 
862.195464  	78.843669 
863.159888  	78.598994 
864.124313  	78.258663 
865.088737  	77.822572 
866.053161  	77.221429 
867.017586  	76.352632 
867.982010  	75.262294 
868.946435  	73.843608 
869.910859  	72.058342 
870.875284  	70.344533 
871.839708  	69.501295 
872.804133  	70.251148 
873.768557  	72.230980 
874.732982  	74.280334 
875.697406  	75.872257 
876.661831  	77.017908 
877.626255  	77.958813 
878.590679  	78.778868 
879.555104  	79.490330 
880.519528  	80.181778 
881.483953  	80.794466 
882.448377  	81.248391 
883.412802  	81.692914 
884.377226  	82.074279 
885.341651  	82.352503 
886.306075  	82.475777 
887.270500  	82.531103 
888.234924  	82.569338 
889.199348  	82.531996 
890.163773  	82.459049 
891.128197  	82.409457 
892.092622  	82.383825 
893.057046  	82.264280 
894.021471  	82.155790 
894.985895  	82.100699 
895.950320  	81.998553 
896.914744  	81.951867 
897.879169  	81.959976 
898.843593  	81.996255 
899.808017  	82.044280 
900.772442  	82.026491 
901.736866  	82.056530 
902.701291  	82.178716 
903.665715  	82.298748 
904.630140  	82.410485 
905.594564  	82.453667 
906.558989  	82.559399 
907.523413  	82.765981 
908.487838  	82.840361 
909.452262  	82.851502 
910.416686  	82.999023 
911.381111  	83.080135 
912.345535  	83.011545 
913.309960  	82.945719 
914.274384  	82.945968 
915.238809  	82.929169 
916.203233  	82.866110 
917.167658  	82.833480 
918.132082  	82.790720 
919.096507  	82.760432 
920.060931  	82.740781 
921.025355  	82.665761 
921.989780  	82.537626 
922.954204  	82.428987 
923.918629  	82.352992 
924.883053  	82.317438 
925.847478  	82.251685 
926.811902  	82.150370 
927.776327  	82.076677 
928.740751  	81.985445 
929.705176  	81.930661 
930.669600  	81.850261 
931.634024  	81.716039 
932.598449  	81.624260 
933.562873  	81.534013 
934.527298  	81.446758 
935.491722  	81.342010 
936.456147  	81.222564 
937.420571  	81.141385 
938.384996  	81.043450 
939.349420  	80.901702 
940.313845  	80.786788 
941.278269  	80.709745 
942.242694  	80.640650 
943.207118  	80.504458 
944.171542  	80.378171 
945.135967  	80.250358 
946.100391  	80.095379 
947.064816  	79.946771 
948.029240  	79.818881 
948.993665  	79.692808 
949.958089  	79.535491 
950.922514  	79.348470 
951.886938  	79.189688 
952.851363  	79.005479 
953.815787  	78.784065 
954.780211  	78.594941 
955.744636  	78.448528 
956.709060  	78.256044 
957.673485  	78.002092 
958.637909  	77.724920 
959.602334  	77.471758 
960.566758  	77.252450 
961.531183  	76.993482 
962.495607  	76.657473 
963.460032  	76.422982 
964.424456  	76.217291 
965.388880  	75.906570 
966.353305  	75.644614 
967.317729  	75.524727 
968.282154  	75.405953 
969.246578  	75.314534 
970.211003  	75.335868 
971.175427  	75.438894 
972.139852  	75.600104 
973.104276  	75.851423 
974.068701  	76.184558 
975.033125  	76.555346 
975.997549  	76.910344 
976.961974  	77.236220 
977.926398  	77.526013 
978.890823  	77.775940 
979.855247  	77.980107 
980.819672  	78.098216 
981.784096  	78.196107 
982.748521  	78.269919 
983.712945  	78.250013 
984.677370  	78.124073 
985.641794  	78.012761 
986.606218  	77.947590 
987.570643  	77.884942 
988.535067  	77.793975 
989.499492  	77.737090 
990.463916  	77.674784 
991.428341  	77.568985 
992.392765  	77.414042 
993.357190  	77.285364 
994.321614  	77.174754 
995.286039  	76.996717 
996.250463  	76.785856 
997.214888  	76.549941 
998.179312  	76.299936 
999.143736  	76.031238 
1000.108161  	75.761639 
1001.072585  	75.505298 
1002.037010  	75.218203 
1003.001434  	74.833404 
1003.965859  	74.409347 
1004.930283  	73.981552 
1005.894708  	73.500770 
1006.859132  	72.919480 
1007.823557  	72.203686 
1008.787981  	71.459080 
1009.752405  	70.620930 
1010.716830  	69.622099 
1011.681254  	68.471787 
1012.645679  	67.195745 
1013.610103  	65.781463 
1014.574528  	64.380074 
1015.538952  	63.355329 
1016.503377  	62.985954 
1017.467801  	63.297546 
1018.432226  	64.178520 
1019.396650  	65.534588 
1020.361074  	67.114211 
1021.325499  	68.692152 
1022.289923  	70.154181 
1023.254348  	71.668641 
1024.218772  	73.348084 
1025.183197  	75.133064 
1026.147621  	76.741080 
1027.112046  	77.838491 
1028.076470  	78.373662 
1029.040895  	78.435862 
1030.005319  	78.219414 
1030.969743  	77.906498 
1031.934168  	77.593396 
1032.898592  	77.297317 
1033.863017  	76.959796 
1034.827441  	76.566324 
1035.791866  	76.195204 
1036.756290  	75.838431 
1037.720715  	75.516472 
1038.685139  	75.270907 
1039.649564  	75.062914 
1040.613988  	74.846498 
1041.578412  	74.626591 
1042.542837  	74.457644 
1043.507261  	74.358726 
1044.471686  	74.262135 
1045.436110  	74.153646 
1046.400535  	74.095764 
1047.364959  	74.066446 
1048.329384  	73.994650 
1049.293808  	73.956380 
1050.258233  	73.953957 
1051.222657  	73.925637 
1052.187081  	73.825767 
1053.151506  	73.703737 
1054.115930  	73.593617 
1055.080355  	73.450593 
1056.044779  	73.232809 
1057.009204  	72.946762 
1057.973628  	72.703690 
1058.938053  	72.433366 
1059.902477  	72.033112 
1060.866902  	71.584683 
1061.831326  	71.226544 
1062.795751  	70.896137 
1063.760175  	70.453084 
1064.724599  	69.967420 
1065.689024  	69.522981 
1066.653448  	69.048685 
1067.617873  	68.527986 
1068.582297  	67.926946 
1069.546722  	67.328101 
1070.511146  	66.754090 
1071.475571  	66.148885 
1072.439995  	65.496330 
1073.404420  	64.821043 
1074.368844  	64.137016 
1075.333268  	63.404553 
1076.297693  	62.606619 
1077.262117  	61.827005 
1078.226542  	61.115743 
1079.190966  	60.401762 
1080.155391  	59.660144 
1081.119815  	58.982650 
1082.084240  	58.477572 
1083.048664  	58.065777 
1084.013089  	57.635806 
1084.977513  	57.284112 
1085.941937  	56.993453 
1086.906362  	56.694180 
1087.870786  	56.430902 
1088.835211  	56.178651 
1089.799635  	55.926530 
1090.764060  	55.693711 
1091.728484  	55.534610 
1092.692909  	55.443899 
1093.657333  	55.374659 
1094.621758  	55.305716 
1095.586182  	55.360473 
1096.550606  	55.544186 
1097.515031  	55.781335 
1098.479455  	56.056086 
1099.443880  	56.433407 
1100.408304  	56.937432 
1101.372729  	57.479730 
1102.337153  	58.067516 
1103.301578  	58.746513 
1104.266002  	59.530377 
1105.230427  	60.246474 
1106.194851  	60.918533 
1107.159275  	61.640513 
1108.123700  	62.387225 
1109.088124  	62.986606 
1110.052549  	63.437095 
1111.016973  	63.827413 
1111.981398  	64.124457 
1112.945822  	64.251401 
1113.910247  	64.249521 
1114.874671  	64.189092 
1115.839096  	64.053286 
1116.803520  	63.909276 
1117.767945  	63.836386 
1118.732369  	63.952473 
1119.696793  	64.247342 
1120.661218  	64.541982 
1121.625642  	64.889932 
1122.590067  	65.407618 
1123.554491  	66.001585 
1124.518916  	66.615181 
1125.483340  	67.339702 
1126.447765  	68.141720 
1127.412189  	68.985542 
1128.376614  	69.883910 
1129.341038  	70.838726 
1130.305462  	71.866976 
1131.269887  	72.930208 
1132.234311  	73.952696 
1133.198736  	74.967050 
1134.163160  	76.000757 
1135.127585  	76.997003 
1136.092009  	77.933738 
1137.056434  	78.850805 
1138.020858  	79.740506 
1138.985283  	80.520245 
1139.949707  	81.180592 
1140.914131  	81.824789 
1141.878556  	82.435039 
1142.842980  	82.954465 
1143.807405  	83.439067 
1144.771829  	83.909446 
1145.736254  	84.333475 
1146.700678  	84.708904 
1147.665103  	85.012875 
1148.629527  	85.296861 
1149.593952  	85.553872 
1150.558376  	85.774725 
1151.522800  	85.955953 
1152.487225  	86.110932 
1153.451649  	86.230034 
1154.416074  	86.329151 
1155.380498  	86.404235 
1156.344923  	86.455384 
1157.309347  	86.481135 
1158.273772  	86.475857 
1159.238196  	86.424242 
1160.202621  	86.409575 
1161.167045  	86.412307 
1162.131469  	86.327222 
1163.095894  	86.207990 
1164.060318  	86.105014 
1165.024743  	85.980107 
1165.989167  	85.795198 
1166.953592  	85.556112 
1167.918016  	85.259093 
1168.882441  	84.902473 
1169.846865  	84.506226 
1170.811290  	84.140674 
1171.775714  	83.841099 
1172.740138  	83.621143 
1173.704563  	83.402734 
1174.668987  	83.178326 
1175.633412  	83.129072 
1176.597836  	83.172737 
1177.562261  	83.188463 
1178.526685  	83.164945 
1179.491110  	83.170786 
1180.455534  	83.194089 
1181.419959  	83.209448 
1182.384383  	83.159652 
1183.348808  	83.062017 
1184.313232  	82.978051 
1185.277656  	82.829198 
1186.242081  	82.618438 
1187.206505  	82.379737 
1188.170930  	82.131609 
1189.135354  	81.827628 
1190.099779  	81.488360 
1191.064203  	81.186554 
