##TITLE=No Description
##DATA TYPE=INFRARED SPECTRUM
##XUNITS=1/CM
##YUNITS=%T
400.236149  	100.793963 
401.200574  	97.570584 
402.164998  	95.791351 
403.129423  	92.103768 
404.093847  	90.476778 
405.058272  	90.872926 
406.022696  	91.428711 
406.987120  	96.180039 
407.951545  	98.404677 
408.915969  	87.519804 
409.880394  	89.538306 
410.844818  	101.354746 
411.809243  	106.542893 
412.773667  	103.314998 
413.738092  	90.466467 
414.702516  	80.456366 
415.666941  	79.323731 
416.631365  	86.041914 
417.595789  	92.297562 
418.560214  	94.316851 
419.524638  	87.685590 
420.489063  	81.894593 
421.453487  	82.582377 
422.417912  	85.859924 
423.382336  	86.058623 
424.346761  	84.428182 
425.311185  	81.723514 
426.275610  	82.030442 
427.240034  	81.899867 
428.204458  	82.035796 
429.168883  	83.116325 
430.133307  	84.143959 
431.097732  	83.078238 
432.062156  	78.940956 
433.026581  	77.989032 
433.991005  	78.955026 
434.955430  	78.506196 
435.919854  	80.376942 
436.884279  	81.172444 
437.848703  	81.652534 
438.813127  	82.820309 
439.777552  	81.907495 
440.741976  	82.048020 
441.706401  	83.453240 
442.670825  	83.487750 
443.635250  	82.701377 
444.599674  	81.794914 
445.564099  	82.536377 
446.528523  	83.872156 
447.492948  	86.009730 
448.457372  	87.337841 
449.421796  	84.645501 
450.386221  	83.661411 
451.350645  	84.696420 
452.315070  	83.693165 
453.279494  	83.888688 
454.243919  	84.397889 
455.208343  	84.612436 
456.172768  	84.376132 
457.137192  	83.936362 
458.101617  	84.263336 
459.066041  	84.044561 
460.030466  	83.103209 
460.994890  	82.752646 
461.959314  	83.405825 
462.923739  	84.293047 
463.888163  	84.071531 
464.852588  	83.390840 
465.817012  	84.012099 
466.781437  	83.701300 
467.745861  	82.119291 
468.710286  	82.056382 
469.674710  	81.803715 
470.639135  	81.425635 
471.603559  	81.779262 
472.567983  	82.882975 
473.532408  	83.563483 
474.496832  	83.149553 
475.461257  	82.920355 
476.425681  	82.264625 
477.390106  	82.391555 
478.354530  	83.054415 
479.318955  	82.596794 
480.283379  	82.049354 
481.247804  	82.015709 
482.212228  	81.812639 
483.176652  	82.561403 
484.141077  	83.401345 
485.105501  	82.376166 
486.069926  	81.741741 
487.034350  	82.362973 
487.998775  	82.469429 
488.963199  	82.471401 
489.927624  	82.840441 
490.892048  	81.907828 
491.856473  	81.149197 
492.820897  	81.479849 
493.785321  	81.426214 
494.749746  	80.848617 
495.714170  	80.652663 
496.678595  	80.503723 
497.643019  	80.485409 
498.607444  	80.583713 
499.571868  	80.033818 
500.536293  	79.358703 
501.500717  	79.028548 
502.465142  	78.890099 
503.429566  	79.295042 
504.393990  	79.521926 
505.358415  	79.379699 
506.322839  	78.807796 
507.287264  	79.196683 
508.251688  	80.280246 
509.216113  	81.354056 
510.180537  	81.382644 
511.144962  	81.781533 
512.109386  	82.651547 
513.073811  	82.922254 
514.038235  	83.174148 
515.002660  	83.028582 
515.967084  	82.346359 
516.931508  	81.933873 
517.895933  	82.381173 
518.860357  	82.560293 
519.824782  	82.534648 
520.789206  	82.688067 
521.753631  	82.916668 
522.718055  	83.099690 
523.682480  	83.069511 
524.646904  	83.028495 
525.611329  	82.748741 
526.575753  	82.524436 
527.540177  	83.057890 
528.504602  	83.337143 
529.469026  	83.236084 
530.433451  	83.114658 
531.397875  	83.165889 
532.362300  	83.286290 
533.326724  	83.738920 
534.291149  	83.602541 
535.255573  	83.405274 
536.219998  	83.320028 
537.184422  	83.922497 
538.148846  	83.850351 
539.113271  	83.883943 
540.077695  	84.227952 
541.042120  	84.213990 
542.006544  	84.188871 
542.970969  	84.176098 
543.935393  	84.333669 
544.899818  	84.345805 
545.864242  	84.307400 
546.828667  	84.101792 
547.793091  	83.824821 
548.757515  	84.022992 
549.721940  	84.500373 
550.686364  	84.557991 
551.650789  	84.708665 
552.615213  	84.325742 
553.579638  	84.402073 
554.544062  	84.422022 
555.508487  	84.059070 
556.472911  	83.857951 
557.437336  	83.998777 
558.401760  	84.157104 
559.366184  	84.491358 
560.330609  	84.427985 
561.295033  	84.269718 
562.259458  	84.087304 
563.223882  	83.684613 
564.188307  	83.831876 
565.152731  	84.168394 
566.117156  	83.946209 
567.081580  	83.565223 
568.046005  	83.569770 
569.010429  	83.670039 
569.974853  	83.620220 
570.939278  	83.659566 
571.903702  	83.742872 
572.868127  	83.773301 
573.832551  	83.643681 
574.796976  	83.578982 
575.761400  	83.095911 
576.725825  	83.302400 
577.690249  	83.612642 
578.654674  	83.663163 
579.619098  	83.417906 
580.583523  	83.175510 
581.547947  	83.482614 
582.512371  	83.822951 
583.476796  	83.720093 
584.441220  	83.457700 
585.405645  	83.516296 
586.370069  	83.890182 
587.334494  	83.710290 
588.298918  	83.414958 
589.263343  	83.255027 
590.227767  	83.387056 
591.192192  	83.220408 
592.156616  	83.042062 
593.121040  	83.311262 
594.085465  	83.486013 
595.049889  	83.445236 
596.014314  	83.432863 
596.978738  	83.470933 
597.943163  	83.425657 
598.907587  	83.381812 
599.872012  	83.192065 
600.836436  	83.250348 
601.800861  	83.429394 
602.765285  	83.370379 
603.729709  	83.240246 
604.694134  	83.180028 
605.658558  	83.191410 
606.622983  	83.150206 
607.587407  	83.007903 
608.551832  	82.972497 
609.516256  	83.077773 
610.480681  	82.973890 
611.445105  	82.938552 
612.409530  	83.062656 
613.373954  	83.140459 
614.338378  	82.851349 
615.302803  	82.563579 
616.267227  	82.524685 
617.231652  	82.832256 
618.196076  	82.887292 
619.160501  	82.790140 
620.124925  	82.521761 
621.089350  	82.333262 
622.053774  	82.405536 
623.018199  	82.642497 
623.982623  	82.399560 
624.947047  	82.308770 
625.911472  	82.127482 
626.875896  	82.189029 
627.840321  	82.075587 
628.804745  	82.057858 
629.769170  	81.817943 
630.733594  	81.394749 
631.698019  	81.274308 
632.662443  	81.504827 
633.626868  	81.808426 
634.591292  	82.044005 
635.555717  	81.979855 
636.520141  	82.136260 
637.484565  	82.193185 
638.448990  	82.207398 
639.413414  	82.127547 
640.377839  	82.149215 
641.342263  	82.199587 
642.306688  	81.997025 
643.271112  	82.016684 
644.235537  	81.981758 
645.199961  	81.863999 
646.164386  	81.929080 
647.128810  	81.811822 
648.093234  	81.686066 
649.057659  	81.779939 
650.022083  	81.760571 
650.986508  	81.705938 
651.950932  	81.548901 
652.915357  	81.204710 
653.879781  	81.073992 
654.844206  	81.158563 
655.808630  	81.110855 
656.773055  	80.948290 
657.737479  	80.961575 
658.701903  	80.922206 
659.666328  	80.760772 
660.630752  	80.622376 
661.595177  	80.580641 
662.559601  	80.507678 
663.524026  	80.406125 
664.488450  	80.377238 
665.452875  	80.186053 
666.417299  	80.164439 
667.381724  	80.543306 
668.346148  	80.533262 
669.310572  	79.824720 
670.274997  	79.528244 
671.239421  	79.463561 
672.203846  	79.485039 
673.168270  	79.278219 
674.132695  	79.027970 
675.097119  	78.883915 
676.061544  	78.565116 
677.025968  	78.326510 
677.990393  	78.183494 
678.954817  	78.041524 
679.919241  	77.923162 
680.883666  	77.985527 
681.848090  	77.946898 
682.812515  	77.879785 
683.776939  	77.763365 
684.741364  	77.543352 
685.705788  	77.333401 
686.670213  	77.323732 
687.634637  	77.015550 
688.599062  	76.644826 
689.563486  	76.374775 
690.527910  	76.103009 
691.492335  	75.759845 
692.456759  	75.485248 
693.421184  	75.019021 
694.385608  	74.554351 
695.350033  	74.010325 
696.314457  	73.518718 
697.278882  	73.081219 
698.243306  	72.439261 
699.207731  	71.668799 
700.172155  	71.055596 
701.136580  	70.367225 
702.101004  	69.814272 
703.065428  	69.338989 
704.029853  	68.742809 
704.994277  	68.082984 
705.958702  	67.512718 
706.923126  	66.866168 
707.887551  	66.113002 
708.851975  	65.298238 
709.816400  	64.354515 
710.780824  	63.426438 
711.745249  	62.429174 
712.709673  	61.293622 
713.674097  	59.970574 
714.638522  	58.636582 
715.602946  	57.189523 
716.567371  	55.578831 
717.531795  	54.013935 
718.496220  	52.495179 
719.460644  	51.060165 
720.425069  	49.812476 
721.389493  	48.874038 
722.353918  	48.328108 
723.318342  	48.183954 
724.282766  	48.819402 
725.247191  	50.472332 
726.211615  	52.763489 
727.176040  	55.268918 
728.140464  	57.834259 
729.104889  	60.452429 
730.069313  	62.948522 
731.033738  	65.502393 
731.998162  	68.131806 
732.962587  	70.771444 
733.927011  	73.401813 
734.891435  	75.940791 
735.855860  	78.322172 
736.820284  	80.581380 
737.784709  	82.605345 
738.749133  	84.445546 
739.713558  	85.968921 
740.677982  	87.121185 
741.642407  	87.908287 
742.606831  	88.492112 
743.571256  	88.910793 
744.535680  	89.117892 
745.500104  	89.220517 
746.464529  	89.243435 
747.428953  	89.139622 
748.393378  	89.062557 
749.357802  	88.934961 
750.322227  	88.784675 
751.286651  	88.619180 
752.251076  	88.481882 
753.215500  	88.435751 
754.179925  	88.370248 
755.144349  	88.266093 
756.108774  	88.202243 
757.073198  	88.034188 
758.037622  	87.909410 
759.002047  	87.742276 
759.966471  	87.565136 
760.930896  	87.416481 
761.895320  	87.252337 
762.859745  	87.175731 
763.824169  	87.031030 
764.788594  	86.842726 
765.753018  	86.651215 
766.717443  	86.424825 
767.681867  	86.175110 
768.646291  	85.967681 
769.610716  	85.873420 
770.575140  	85.740715 
771.539565  	85.629735 
772.503989  	85.553280 
773.468414  	85.510792 
774.432838  	85.421346 
775.397263  	85.335810 
776.361687  	85.215521 
777.326112  	85.118955 
778.290536  	85.044363 
779.254960  	85.007720 
780.219385  	84.914020 
781.183809  	84.801770 
782.148234  	84.456252 
783.112658  	84.206793 
784.077083  	84.162866 
785.041507  	83.990749 
786.005932  	83.800092 
786.970356  	83.503199 
787.934781  	83.155372 
788.899205  	82.906445 
789.863629  	82.749304 
790.828054  	82.533935 
791.792478  	82.258568 
792.756903  	82.067687 
793.721327  	82.205969 
794.685752  	82.514444 
795.650176  	83.054453 
796.614601  	83.648766 
797.579025  	84.013403 
798.543450  	84.034733 
799.507874  	84.004068 
800.472298  	84.065701 
801.436723  	84.046736 
802.401147  	83.972981 
803.365572  	83.956587 
804.329996  	83.908582 
805.294421  	83.811269 
806.258845  	83.755271 
807.223270  	83.689401 
808.187694  	83.668283 
809.152119  	83.747554 
810.116543  	83.731280 
811.080967  	83.670241 
812.045392  	83.657571 
813.009816  	83.634817 
813.974241  	83.562810 
814.938665  	83.549001 
815.903090  	83.554332 
816.867514  	83.509077 
817.831939  	83.556944 
818.796363  	83.516445 
819.760788  	83.348899 
820.725212  	83.342859 
821.689637  	83.293055 
822.654061  	83.147668 
823.618485  	83.010891 
824.582910  	82.912818 
825.547334  	82.695721 
826.511759  	82.542059 
827.476183  	82.545978 
828.440608  	82.457905 
829.405032  	82.227895 
830.369457  	81.990257 
831.333881  	81.827068 
832.298306  	81.667514 
833.262730  	81.409755 
834.227154  	81.174241 
835.191579  	80.908874 
836.156003  	80.678046 
837.120428  	80.419438 
838.084852  	80.077539 
839.049277  	79.793982 
840.013701  	79.533171 
840.978126  	79.204600 
841.942550  	78.957891 
842.906975  	78.632753 
843.871399  	78.282758 
844.835823  	77.963234 
845.800248  	77.770013 
846.764672  	77.774922 
847.729097  	77.946640 
848.693521  	78.181506 
849.657946  	78.533691 
850.622370  	78.923449 
851.586795  	79.218525 
852.551219  	79.357037 
853.515644  	79.570955 
854.480068  	79.776796 
855.444492  	79.827034 
856.408917  	79.868899 
857.373341  	79.985109 
858.337766  	80.134559 
859.302190  	80.153066 
860.266615  	80.144833 
861.231039  	80.176265 
862.195464  	80.103327 
863.159888  	79.918938 
864.124313  	79.654315 
865.088737  	79.169009 
866.053161  	78.607271 
867.017586  	77.798072 
867.982010  	76.749644 
868.946435  	75.476414 
869.910859  	73.851647 
870.875284  	72.157163 
871.839708  	71.305858 
872.804133  	71.980537 
873.768557  	73.892564 
874.732982  	75.905833 
875.697406  	77.429423 
876.661831  	78.544163 
877.626255  	79.425565 
878.590679  	80.201558 
879.555104  	80.885806 
880.519528  	81.448496 
881.483953  	81.912259 
882.448377  	82.344705 
883.412802  	82.759617 
884.377226  	83.101239 
885.341651  	83.281894 
886.306075  	83.357523 
887.270500  	83.447275 
888.234924  	83.569380 
889.199348  	83.535600 
890.163773  	83.476380 
891.128197  	83.494561 
892.092622  	83.441670 
893.057046  	83.300855 
894.021471  	83.216151 
894.985895  	83.205799 
895.950320  	83.093561 
896.914744  	82.968805 
897.879169  	82.948359 
898.843593  	83.006051 
899.808017  	83.099609 
900.772442  	83.154483 
901.736866  	83.146502 
902.701291  	83.295559 
903.665715  	83.420189 
904.630140  	83.483721 
905.594564  	83.527368 
906.558989  	83.651412 
907.523413  	83.798759 
908.487838  	83.900139 
909.452262  	83.989931 
910.416686  	84.070263 
911.381111  	84.102077 
912.345535  	84.063843 
913.309960  	84.000218 
914.274384  	83.987475 
915.238809  	84.000097 
916.203233  	84.000133 
917.167658  	83.998861 
918.132082  	83.925270 
919.096507  	83.864854 
920.060931  	83.829983 
921.025355  	83.752938 
921.989780  	83.666729 
922.954204  	83.575908 
923.918629  	83.469766 
924.883053  	83.407822 
925.847478  	83.349669 
926.811902  	83.259231 
927.776327  	83.165115 
928.740751  	83.089534 
929.705176  	83.047377 
930.669600  	82.981416 
931.634024  	82.890080 
932.598449  	82.836798 
933.562873  	82.774159 
934.527298  	82.656186 
935.491722  	82.499335 
936.456147  	82.405766 
937.420571  	82.385109 
938.384996  	82.294334 
939.349420  	82.147036 
940.313845  	82.032896 
941.278269  	81.918613 
942.242694  	81.821695 
943.207118  	81.697806 
944.171542  	81.606233 
945.135967  	81.516137 
946.100391  	81.390858 
947.064816  	81.243470 
948.029240  	81.088189 
948.993665  	80.919242 
949.958089  	80.787854 
950.922514  	80.669319 
951.886938  	80.548079 
952.851363  	80.347493 
953.815787  	80.114178 
954.780211  	79.955590 
955.744636  	79.849372 
956.709060  	79.654800 
957.673485  	79.402015 
958.637909  	79.134196 
959.602334  	78.880337 
960.566758  	78.666285 
961.531183  	78.441554 
962.495607  	78.172571 
963.460032  	77.925164 
964.424456  	77.694654 
965.388880  	77.420756 
966.353305  	77.172021 
967.317729  	77.034954 
968.282154  	76.886478 
969.246578  	76.723233 
970.211003  	76.694305 
971.175427  	76.797658 
972.139852  	76.938084 
973.104276  	77.186482 
974.068701  	77.529995 
975.033125  	77.881554 
975.997549  	78.199958 
976.961974  	78.513708 
977.926398  	78.792272 
978.890823  	79.037069 
979.855247  	79.194553 
980.819672  	79.277137 
981.784096  	79.371544 
982.748521  	79.480297 
983.712945  	79.470975 
984.677370  	79.387841 
985.641794  	79.313927 
986.606218  	79.226296 
987.570643  	79.093926 
988.535067  	78.994501 
989.499492  	78.979647 
990.463916  	78.955112 
991.428341  	78.879234 
992.392765  	78.750258 
993.357190  	78.560775 
994.321614  	78.398400 
995.286039  	78.248765 
996.250463  	78.059774 
997.214888  	77.860470 
998.179312  	77.676041 
999.143736  	77.413349 
1000.108161  	77.136471 
1001.072585  	76.872954 
1002.037010  	76.580382 
1003.001434  	76.229251 
1003.965859  	75.863502 
1004.930283  	75.500681 
1005.894708  	75.026235 
1006.859132  	74.433813 
1007.823557  	73.799904 
1008.787981  	73.103872 
1009.752405  	72.292964 
1010.716830  	71.315941 
1011.681254  	70.175595 
1012.645679  	68.919108 
1013.610103  	67.552602 
1014.574528  	66.209761 
1015.538952  	65.202423 
1016.503377  	64.778323 
1017.467801  	65.012819 
1018.432226  	65.852513 
1019.396650  	67.101753 
1020.361074  	68.540244 
1021.325499  	69.982673 
1022.289923  	71.311501 
1023.254348  	72.715311 
1024.218772  	74.334099 
1025.183197  	76.047161 
1026.147621  	77.560088 
1027.112046  	78.622332 
1028.076470  	79.112640 
1029.040895  	79.193706 
1030.005319  	79.056290 
1030.969743  	78.844299 
1031.934168  	78.605809 
1032.898592  	78.325780 
1033.863017  	77.968085 
1034.827441  	77.563945 
1035.791866  	77.209823 
1036.756290  	76.932965 
1037.720715  	76.671616 
1038.685139  	76.421498 
1039.649564  	76.213689 
1040.613988  	76.023607 
1041.578412  	75.852891 
1042.542837  	75.722679 
1043.507261  	75.647069 
1044.471686  	75.578202 
1045.436110  	75.541885 
1046.400535  	75.499211 
1047.364959  	75.457597 
1048.329384  	75.393450 
1049.293808  	75.362278 
1050.258233  	75.400710 
1051.222657  	75.384867 
1052.187081  	75.296501 
1053.151506  	75.165483 
1054.115930  	75.060779 
1055.080355  	74.928723 
1056.044779  	74.755880 
1057.009204  	74.511130 
1057.973628  	74.271966 
1058.938053  	74.023312 
1059.902477  	73.715772 
1060.866902  	73.343026 
1061.831326  	73.013394 
1062.795751  	72.670448 
1063.760175  	72.234902 
1064.724599  	71.712529 
1065.689024  	71.242416 
1066.653448  	70.827083 
1067.617873  	70.371774 
1068.582297  	69.854437 
1069.546722  	69.313698 
1070.511146  	68.783101 
1071.475571  	68.211164 
1072.439995  	67.589147 
1073.404420  	66.983868 
1074.368844  	66.328837 
1075.333268  	65.603681 
1076.297693  	64.864830 
1077.262117  	64.138102 
1078.226542  	63.450587 
1079.190966  	62.770918 
1080.155391  	62.106239 
1081.119815  	61.509457 
1082.084240  	60.963058 
1083.048664  	60.488636 
1084.013089  	60.105482 
1084.977513  	59.802742 
1085.941937  	59.485616 
1086.906362  	59.133298 
1087.870786  	58.869350 
1088.835211  	58.619430 
1089.799635  	58.338893 
1090.764060  	58.085709 
1091.728484  	57.914792 
1092.692909  	57.793522 
1093.657333  	57.676643 
1094.621758  	57.595922 
1095.586182  	57.641959 
1096.550606  	57.757867 
1097.515031  	57.903522 
1098.479455  	58.123895 
1099.443880  	58.481258 
1100.408304  	58.938600 
1101.372729  	59.430353 
1102.337153  	60.001971 
1103.301578  	60.598648 
1104.266002  	61.204429 
1105.230427  	61.881282 
1106.194851  	62.550117 
1107.159275  	63.235644 
1108.123700  	63.906748 
1109.088124  	64.471181 
1110.052549  	64.965615 
1111.016973  	65.367198 
1111.981398  	65.621276 
1112.945822  	65.780808 
1113.910247  	65.867684 
1114.874671  	65.837857 
1115.839096  	65.710041 
1116.803520  	65.537294 
1117.767945  	65.422911 
1118.732369  	65.470147 
1119.696793  	65.650099 
1120.661218  	65.896085 
1121.625642  	66.204421 
1122.590067  	66.643146 
1123.554491  	67.181407 
1124.518916  	67.757691 
1125.483340  	68.414632 
1126.447765  	69.162812 
1127.412189  	69.969657 
1128.376614  	70.827515 
1129.341038  	71.761205 
1130.305462  	72.748616 
1131.269887  	73.751533 
1132.234311  	74.755325 
1133.198736  	75.764541 
1134.163160  	76.759220 
1135.127585  	77.717707 
1136.092009  	78.626098 
1137.056434  	79.529759 
1138.020858  	80.397298 
1138.985283  	81.141468 
1139.949707  	81.812237 
1140.914131  	82.480113 
1141.878556  	83.085170 
1142.842980  	83.586025 
1143.807405  	84.108573 
1144.771829  	84.620996 
1145.736254  	85.011338 
1146.700678  	85.332246 
1147.665103  	85.614719 
1148.629527  	85.920705 
1149.593952  	86.189024 
1150.558376  	86.395222 
1151.522800  	86.543988 
1152.487225  	86.688540 
1153.451649  	86.817774 
1154.416074  	86.907874 
1155.380498  	86.940147 
1156.344923  	86.984497 
1157.309347  	87.047583 
1158.273772  	87.049504 
1159.238196  	86.998408 
1160.202621  	87.000258 
1161.167045  	86.964138 
1162.131469  	86.848476 
1163.095894  	86.749096 
1164.060318  	86.676500 
1165.024743  	86.518362 
1165.989167  	86.317805 
1166.953592  	86.106465 
1167.918016  	85.856329 
1168.882441  	85.536728 
1169.846865  	85.192456 
1170.811290  	84.868441 
1171.775714  	84.584799 
1172.740138  	84.356746 
1173.704563  	84.123011 
1174.668987  	83.929145 
1175.633412  	83.883505 
1176.597836  	83.883776 
1177.562261  	83.873177 
1178.526685  	83.891941 
1179.491110  	83.904236 
1180.455534  	83.893712 
1181.419959  	83.902525 
1182.384383  	83.858002 
1183.348808  	83.778055 
1184.313232  	83.693513 
1185.277656  	83.536190 
1186.242081  	83.326600 
1187.206505  	83.130446 
1188.170930  	82.943299 
1189.135354  	82.683867 
1190.099779  	82.365507 
1191.064203  	82.072670 
