##TITLE=No Description
##DATA TYPE=INFRARED SPECTRUM
##XUNITS=1/CM
##YUNITS=%T
400.236149  	108.062616 
401.200574  	93.604367 
402.164998  	78.562508 
403.129423  	84.634021 
404.093847  	91.745829 
405.058272  	78.076806 
406.022696  	81.700698 
406.987120  	83.445008 
407.951545  	92.415237 
408.915969  	92.556564 
409.880394  	93.146661 
410.844818  	96.831449 
411.809243  	97.880470 
412.773667  	93.368758 
413.738092  	83.360327 
414.702516  	71.600364 
415.666941  	74.622252 
416.631365  	85.546063 
417.595789  	91.099182 
418.560214  	85.507248 
419.524638  	78.915609 
420.489063  	80.455468 
421.453487  	81.702141 
422.417912  	81.599528 
423.382336  	84.063419 
424.346761  	84.259086 
425.311185  	78.763796 
426.275610  	79.950691 
427.240034  	83.191423 
428.204458  	82.669854 
429.168883  	79.523302 
430.133307  	77.672639 
431.097732  	76.276699 
432.062156  	75.843436 
433.026581  	75.312228 
433.991005  	76.650014 
434.955430  	77.978344 
435.919854  	77.458834 
436.884279  	77.269855 
437.848703  	78.241542 
438.813127  	79.735959 
439.777552  	79.366598 
440.741976  	78.971407 
441.706401  	80.711558 
442.670825  	82.659284 
443.635250  	80.868057 
444.599674  	81.880899 
445.564099  	83.046820 
446.528523  	83.358636 
447.492948  	85.200867 
448.457372  	86.151729 
449.421796  	84.415159 
450.386221  	82.461570 
451.350645  	83.434001 
452.315070  	83.753867 
453.279494  	83.397156 
454.243919  	83.985316 
455.208343  	83.538118 
456.172768  	82.669548 
457.137192  	82.522975 
458.101617  	83.586804 
459.066041  	83.955774 
460.030466  	83.296037 
460.994890  	82.347929 
461.959314  	82.003006 
462.923739  	82.736084 
463.888163  	82.891012 
464.852588  	82.794152 
465.817012  	83.074352 
466.781437  	83.483215 
467.745861  	82.404340 
468.710286  	81.268724 
469.674710  	80.822295 
470.639135  	80.612609 
471.603559  	80.908499 
472.567983  	81.101001 
473.532408  	82.216224 
474.496832  	82.486218 
475.461257  	82.154296 
476.425681  	81.345987 
477.390106  	81.871805 
478.354530  	82.635702 
479.318955  	82.306958 
480.283379  	81.797500 
481.247804  	81.875568 
482.212228  	81.941129 
483.176652  	82.420680 
484.141077  	82.180169 
485.105501  	81.671236 
486.069926  	81.094093 
487.034350  	81.942883 
487.998775  	82.178424 
488.963199  	82.061791 
489.927624  	82.145415 
490.892048  	81.272277 
491.856473  	80.340382 
492.820897  	81.097369 
493.785321  	81.071295 
494.749746  	80.190253 
495.714170  	80.061096 
496.678595  	79.852364 
497.643019  	79.635123 
498.607444  	79.353511 
499.571868  	79.000985 
500.536293  	78.587426 
501.500717  	77.647173 
502.465142  	77.416043 
503.429566  	77.741079 
504.393990  	77.863243 
505.358415  	78.032446 
506.322839  	77.528029 
507.287264  	77.938798 
508.251688  	79.662322 
509.216113  	80.726386 
510.180537  	80.780971 
511.144962  	81.565453 
512.109386  	82.518224 
513.073811  	82.567985 
514.038235  	82.422204 
515.002660  	82.448758 
515.967084  	82.301309 
516.931508  	81.879768 
517.895933  	81.983473 
518.860357  	82.196687 
519.824782  	81.729471 
520.789206  	81.993660 
521.753631  	82.499210 
522.718055  	82.715705 
523.682480  	82.571998 
524.646904  	82.549325 
525.611329  	82.107336 
526.575753  	81.971474 
527.540177  	82.609769 
528.504602  	83.005930 
529.469026  	83.073167 
530.433451  	83.155798 
531.397875  	83.440739 
532.362300  	83.495408 
533.326724  	83.529285 
534.291149  	83.353332 
535.255573  	83.448077 
536.219998  	83.658291 
537.184422  	83.728629 
538.148846  	83.421498 
539.113271  	83.575187 
540.077695  	83.615260 
541.042120  	84.070815 
542.006544  	84.229292 
542.970969  	84.053605 
543.935393  	84.089999 
544.899818  	84.072446 
545.864242  	83.609787 
546.828667  	83.525744 
547.793091  	83.349176 
548.757515  	83.602675 
549.721940  	84.075688 
550.686364  	84.177182 
551.650789  	84.402398 
552.615213  	84.201701 
553.579638  	84.281159 
554.544062  	84.507225 
555.508487  	84.494191 
556.472911  	84.373702 
557.437336  	84.296271 
558.401760  	84.368101 
559.366184  	84.538356 
560.330609  	84.507837 
561.295033  	84.290559 
562.259458  	84.176497 
563.223882  	83.832473 
564.188307  	83.613697 
565.152731  	83.963955 
566.117156  	84.232354 
567.081580  	83.783519 
568.046005  	83.537049 
569.010429  	83.525413 
569.974853  	83.752883 
570.939278  	83.767099 
571.903702  	83.699014 
572.868127  	83.679005 
573.832551  	83.631884 
574.796976  	83.583579 
575.761400  	83.074240 
576.725825  	83.281645 
577.690249  	83.646355 
578.654674  	83.847753 
579.619098  	83.686109 
580.583523  	83.127395 
581.547947  	83.318772 
582.512371  	83.608915 
583.476796  	83.605152 
584.441220  	83.343367 
585.405645  	83.328619 
586.370069  	83.833344 
587.334494  	83.936086 
588.298918  	83.804871 
589.263343  	83.680293 
590.227767  	83.581055 
591.192192  	83.188493 
592.156616  	82.820438 
593.121040  	83.211830 
594.085465  	83.425642 
595.049889  	83.468242 
596.014314  	83.359766 
596.978738  	83.306761 
597.943163  	83.331412 
598.907587  	83.415981 
599.872012  	83.051737 
600.836436  	83.037629 
601.800861  	83.248921 
602.765285  	83.154465 
603.729709  	83.115052 
604.694134  	83.360869 
605.658558  	83.352708 
606.622983  	83.237185 
607.587407  	83.044724 
608.551832  	82.976943 
609.516256  	82.973183 
610.480681  	82.773772 
611.445105  	82.627176 
612.409530  	82.843620 
613.373954  	83.103079 
614.338378  	82.999792 
615.302803  	82.657187 
616.267227  	82.482163 
617.231652  	82.653264 
618.196076  	82.636729 
619.160501  	82.670525 
620.124925  	82.484738 
621.089350  	82.285394 
622.053774  	82.218188 
623.018199  	82.412653 
623.982623  	82.193965 
624.947047  	81.991848 
625.911472  	81.783940 
626.875896  	81.893766 
627.840321  	81.745892 
628.804745  	81.641390 
629.769170  	81.288904 
630.733594  	80.819552 
631.698019  	80.697566 
632.662443  	80.879076 
633.626868  	81.221613 
634.591292  	81.565790 
635.555717  	81.482587 
636.520141  	81.767191 
637.484565  	82.024509 
638.448990  	82.038440 
639.413414  	81.800967 
640.377839  	81.721622 
641.342263  	81.588582 
642.306688  	81.396496 
643.271112  	81.410540 
644.235537  	81.400453 
645.199961  	81.369169 
646.164386  	81.501556 
647.128810  	81.469937 
648.093234  	81.213053 
649.057659  	81.043502 
650.022083  	81.060932 
650.986508  	81.126224 
651.950932  	81.053691 
652.915357  	80.906806 
653.879781  	80.830113 
654.844206  	80.759157 
655.808630  	80.656319 
656.773055  	80.527065 
657.737479  	80.463299 
658.701903  	80.348033 
659.666328  	80.213085 
660.630752  	80.225125 
661.595177  	80.212139 
662.559601  	80.041089 
663.524026  	79.854151 
664.488450  	79.776920 
665.452875  	79.594128 
666.417299  	79.612283 
667.381724  	79.988680 
668.346148  	79.740707 
669.310572  	78.899392 
670.274997  	78.792538 
671.239421  	78.890270 
672.203846  	78.868314 
673.168270  	78.566491 
674.132695  	78.236982 
675.097119  	78.062087 
676.061544  	77.737057 
677.025968  	77.479166 
677.990393  	77.264155 
678.954817  	77.145522 
679.919241  	77.038408 
680.883666  	76.923199 
681.848090  	76.879870 
682.812515  	76.842798 
683.776939  	76.600037 
684.741364  	76.443897 
685.705788  	76.269344 
686.670213  	76.180193 
687.634637  	75.887852 
688.599062  	75.528565 
689.563486  	75.207247 
690.527910  	74.905015 
691.492335  	74.532374 
692.456759  	74.223342 
693.421184  	73.743083 
694.385608  	73.256652 
695.350033  	72.680329 
696.314457  	72.038320 
697.278882  	71.281876 
698.243306  	70.422871 
699.207731  	69.514300 
700.172155  	68.750665 
701.136580  	68.001054 
702.101004  	67.357269 
703.065428  	66.792225 
704.029853  	66.185912 
704.994277  	65.429562 
705.958702  	64.597428 
706.923126  	63.799757 
707.887551  	63.040874 
708.851975  	62.199067 
709.816400  	61.117413 
710.780824  	59.930283 
711.745249  	58.725480 
712.709673  	57.484373 
713.674097  	56.132685 
714.638522  	54.700494 
715.602946  	53.150752 
716.567371  	51.364838 
717.531795  	49.687001 
718.496220  	48.143024 
719.460644  	46.737113 
720.425069  	45.486918 
721.389493  	44.561492 
722.353918  	43.982006 
723.318342  	43.917014 
724.282766  	44.685711 
725.247191  	46.437926 
726.211615  	48.892422 
727.176040  	51.602340 
728.140464  	54.323469 
729.104889  	57.060673 
730.069313  	59.847252 
731.033738  	62.712064 
731.998162  	65.507088 
732.962587  	68.341325 
733.927011  	71.135825 
734.891435  	73.842364 
735.855860  	76.530124 
736.820284  	79.138078 
737.784709  	81.504259 
738.749133  	83.539559 
739.713558  	85.177714 
740.677982  	86.458885 
741.642407  	87.432021 
742.606831  	88.159825 
743.571256  	88.577266 
744.535680  	88.728725 
745.500104  	88.852848 
746.464529  	88.941644 
747.428953  	88.922773 
748.393378  	88.921841 
749.357802  	88.805439 
750.322227  	88.655347 
751.286651  	88.483001 
752.251076  	88.356602 
753.215500  	88.342856 
754.179925  	88.269596 
755.144349  	88.152887 
756.108774  	88.058515 
757.073198  	87.888928 
758.037622  	87.685015 
759.002047  	87.473103 
759.966471  	87.364434 
760.930896  	87.245086 
761.895320  	87.176893 
762.859745  	87.072980 
763.824169  	86.910418 
764.788594  	86.726993 
765.753018  	86.572148 
766.717443  	86.403866 
767.681867  	86.249437 
768.646291  	86.085193 
769.610716  	85.927664 
770.575140  	85.732865 
771.539565  	85.609815 
772.503989  	85.436043 
773.468414  	85.303203 
774.432838  	85.118277 
775.397263  	84.955448 
776.361687  	84.735390 
777.326112  	84.608705 
778.290536  	84.533312 
779.254960  	84.505957 
780.219385  	84.299911 
781.183809  	84.253538 
782.148234  	83.946363 
783.112658  	83.881109 
784.077083  	83.580925 
785.041507  	83.203078 
786.005932  	83.033930 
786.970356  	82.638871 
787.934781  	82.214358 
788.899205  	81.998206 
789.863629  	81.762059 
790.828054  	81.320517 
791.792478  	81.006404 
792.756903  	80.949105 
793.721327  	81.137020 
794.685752  	81.468446 
795.650176  	82.022398 
796.614601  	82.662503 
797.579025  	83.128018 
798.543450  	83.153196 
799.507874  	83.176036 
800.472298  	83.276981 
801.436723  	83.237719 
802.401147  	83.118764 
803.365572  	83.034277 
804.329996  	82.985489 
805.294421  	82.995165 
806.258845  	82.890231 
807.223270  	82.823105 
808.187694  	82.797125 
809.152119  	82.806484 
810.116543  	82.769159 
811.080967  	82.686756 
812.045392  	82.665105 
813.009816  	82.650847 
813.974241  	82.619804 
814.938665  	82.623909 
815.903090  	82.604781 
816.867514  	82.540265 
817.831939  	82.499637 
818.796363  	82.541075 
819.760788  	82.461167 
820.725212  	82.358830 
821.689637  	82.249097 
822.654061  	82.122076 
823.618485  	81.978398 
824.582910  	81.836495 
825.547334  	81.616338 
826.511759  	81.443747 
827.476183  	81.320037 
828.440608  	81.173763 
829.405032  	80.937012 
830.369457  	80.733862 
831.333881  	80.619582 
832.298306  	80.429826 
833.262730  	80.110073 
834.227154  	79.866652 
835.191579  	79.640590 
836.156003  	79.357798 
837.120428  	79.002807 
838.084852  	78.625603 
839.049277  	78.378194 
840.013701  	78.086182 
840.978126  	77.707925 
841.942550  	77.438732 
842.906975  	77.103439 
843.871399  	76.721622 
844.835823  	76.396226 
845.800248  	76.216943 
846.764672  	76.231256 
847.729097  	76.345057 
848.693521  	76.490650 
849.657946  	76.899444 
850.622370  	77.422874 
851.586795  	77.767744 
852.551219  	77.915777 
853.515644  	78.109041 
854.480068  	78.345878 
855.444492  	78.482674 
856.408917  	78.555434 
857.373341  	78.671594 
858.337766  	78.806653 
859.302190  	78.860379 
860.266615  	78.868189 
861.231039  	78.811070 
862.195464  	78.671794 
863.159888  	78.378936 
864.124313  	77.994269 
865.088737  	77.510126 
866.053161  	76.869165 
867.017586  	75.976910 
867.982010  	74.787935 
868.946435  	73.344616 
869.910859  	71.503333 
870.875284  	69.557712 
871.839708  	68.645646 
872.804133  	69.553710 
873.768557  	71.610124 
874.732982  	73.699634 
875.697406  	75.391768 
876.661831  	76.648304 
877.626255  	77.650029 
878.590679  	78.550798 
879.555104  	79.359125 
880.519528  	80.035364 
881.483953  	80.636979 
882.448377  	81.166947 
883.412802  	81.637176 
884.377226  	82.008192 
885.341651  	82.241613 
886.306075  	82.409395 
887.270500  	82.515797 
888.234924  	82.602239 
889.199348  	82.593786 
890.163773  	82.467489 
891.128197  	82.432346 
892.092622  	82.448055 
893.057046  	82.346875 
894.021471  	82.227019 
894.985895  	82.155945 
895.950320  	82.022875 
896.914744  	81.912486 
897.879169  	81.902867 
898.843593  	81.924351 
899.808017  	81.982118 
900.772442  	82.012045 
901.736866  	82.038732 
902.701291  	82.209686 
903.665715  	82.343635 
904.630140  	82.431818 
905.594564  	82.531831 
906.558989  	82.674590 
907.523413  	82.794381 
908.487838  	82.847275 
909.452262  	82.974090 
910.416686  	83.145320 
911.381111  	83.158001 
912.345535  	83.076600 
913.309960  	83.031458 
914.274384  	83.033428 
915.238809  	83.030770 
916.203233  	82.994485 
917.167658  	83.004182 
918.132082  	82.986032 
919.096507  	82.918355 
920.060931  	82.878840 
921.025355  	82.850859 
921.989780  	82.763287 
922.954204  	82.640151 
923.918629  	82.570704 
924.883053  	82.508694 
925.847478  	82.418142 
926.811902  	82.320964 
927.776327  	82.240502 
928.740751  	82.157889 
929.705176  	82.061811 
930.669600  	81.951211 
931.634024  	81.873341 
932.598449  	81.830641 
933.562873  	81.724591 
934.527298  	81.600374 
935.491722  	81.458072 
936.456147  	81.346676 
937.420571  	81.294998 
938.384996  	81.191600 
939.349420  	81.082484 
940.313845  	80.994906 
941.278269  	80.873298 
942.242694  	80.759557 
943.207118  	80.617727 
944.171542  	80.479234 
945.135967  	80.359549 
946.100391  	80.240744 
947.064816  	80.102735 
948.029240  	79.923614 
948.993665  	79.741686 
949.958089  	79.585191 
950.922514  	79.424803 
951.886938  	79.295469 
952.851363  	79.148598 
953.815787  	78.942041 
954.780211  	78.735667 
955.744636  	78.542479 
956.709060  	78.326599 
957.673485  	78.098207 
958.637909  	77.797060 
959.602334  	77.482521 
960.566758  	77.251183 
961.531183  	76.979655 
962.495607  	76.668194 
963.460032  	76.436917 
964.424456  	76.204558 
965.388880  	75.887147 
966.353305  	75.633150 
967.317729  	75.489518 
968.282154  	75.326731 
969.246578  	75.191189 
970.211003  	75.186014 
971.175427  	75.283535 
972.139852  	75.457659 
973.104276  	75.718947 
974.068701  	76.037820 
975.033125  	76.404626 
975.997549  	76.790158 
976.961974  	77.126768 
977.926398  	77.410969 
978.890823  	77.691767 
979.855247  	77.908860 
980.819672  	78.019291 
981.784096  	78.097874 
982.748521  	78.187015 
983.712945  	78.201133 
984.677370  	78.113851 
985.641794  	78.037720 
986.606218  	77.955910 
987.570643  	77.834348 
988.535067  	77.736425 
989.499492  	77.693857 
990.463916  	77.651813 
991.428341  	77.560599 
992.392765  	77.415739 
993.357190  	77.265493 
994.321614  	77.139484 
995.286039  	76.973558 
996.250463  	76.779874 
997.214888  	76.565819 
998.179312  	76.338547 
999.143736  	76.063614 
1000.108161  	75.767495 
1001.072585  	75.495776 
1002.037010  	75.201736 
1003.001434  	74.816723 
1003.965859  	74.376992 
1004.930283  	73.919572 
1005.894708  	73.415178 
1006.859132  	72.804497 
1007.823557  	72.096844 
1008.787981  	71.324843 
1009.752405  	70.462081 
1010.716830  	69.396250 
1011.681254  	68.169780 
1012.645679  	66.800667 
1013.610103  	65.285895 
1014.574528  	63.757164 
1015.538952  	62.581976 
1016.503377  	62.088555 
1017.467801  	62.299910 
1018.432226  	63.183334 
1019.396650  	64.601491 
1020.361074  	66.236513 
1021.325499  	67.853118 
1022.289923  	69.357019 
1023.254348  	70.930003 
1024.218772  	72.698262 
1025.183197  	74.538345 
1026.147621  	76.149431 
1027.112046  	77.291604 
1028.076470  	77.857733 
1029.040895  	77.948504 
1030.005319  	77.774626 
1030.969743  	77.521052 
1031.934168  	77.246601 
1032.898592  	76.933702 
1033.863017  	76.584653 
1034.827441  	76.207686 
1035.791866  	75.839397 
1036.756290  	75.521404 
1037.720715  	75.234548 
1038.685139  	74.949396 
1039.649564  	74.715914 
1040.613988  	74.515967 
1041.578412  	74.298446 
1042.542837  	74.107293 
1043.507261  	74.002642 
1044.471686  	73.919845 
1045.436110  	73.850266 
1046.400535  	73.816083 
1047.364959  	73.800034 
1048.329384  	73.754458 
1049.293808  	73.714350 
1050.258233  	73.694293 
1051.222657  	73.669170 
1052.187081  	73.614030 
1053.151506  	73.498445 
1054.115930  	73.396732 
1055.080355  	73.233919 
1056.044779  	73.048872 
1057.009204  	72.812693 
1057.973628  	72.509742 
1058.938053  	72.195996 
1059.902477  	71.844534 
1060.866902  	71.418070 
1061.831326  	71.024898 
1062.795751  	70.639564 
1063.760175  	70.202568 
1064.724599  	69.663450 
1065.689024  	69.146941 
1066.653448  	68.672574 
1067.617873  	68.158235 
1068.582297  	67.593391 
1069.546722  	66.981077 
1070.511146  	66.340032 
1071.475571  	65.690368 
1072.439995  	64.965133 
1073.404420  	64.219654 
1074.368844  	63.473119 
1075.333268  	62.663287 
1076.297693  	61.814391 
1077.262117  	60.942319 
1078.226542  	60.156953 
1079.190966  	59.396673 
1080.155391  	58.570742 
1081.119815  	57.857325 
1082.084240  	57.302627 
1083.048664  	56.845999 
1084.013089  	56.431994 
1084.977513  	56.048891 
1085.941937  	55.705989 
1086.906362  	55.406450 
1087.870786  	55.105243 
1088.835211  	54.813688 
1089.799635  	54.590906 
1090.764060  	54.350773 
1091.728484  	54.153990 
1092.692909  	54.045343 
1093.657333  	53.953420 
1094.621758  	53.867426 
1095.586182  	53.879151 
1096.550606  	54.005689 
1097.515031  	54.236356 
1098.479455  	54.550451 
1099.443880  	54.953037 
1100.408304  	55.468705 
1101.372729  	56.084799 
1102.337153  	56.734154 
1103.301578  	57.405059 
1104.266002  	58.148768 
1105.230427  	58.873157 
1106.194851  	59.615558 
1107.159275  	60.407246 
1108.123700  	61.166079 
1109.088124  	61.814414 
1110.052549  	62.295776 
1111.016973  	62.657461 
1111.981398  	62.916050 
1112.945822  	63.048614 
1113.910247  	63.061965 
1114.874671  	63.010633 
1115.839096  	62.897141 
1116.803520  	62.780204 
1117.767945  	62.710111 
1118.732369  	62.806803 
1119.696793  	63.054627 
1120.661218  	63.378876 
1121.625642  	63.765157 
1122.590067  	64.278236 
1123.554491  	64.851020 
1124.518916  	65.459617 
1125.483340  	66.198611 
1126.447765  	67.019981 
1127.412189  	67.858051 
1128.376614  	68.747509 
1129.341038  	69.732510 
1130.305462  	70.777013 
1131.269887  	71.854243 
1132.234311  	72.916748 
1133.198736  	73.989288 
1134.163160  	75.052460 
1135.127585  	76.078363 
1136.092009  	77.052589 
1137.056434  	78.008610 
1138.020858  	78.949417 
1138.985283  	79.780752 
1139.949707  	80.509101 
1140.914131  	81.222294 
1141.878556  	81.866180 
1142.842980  	82.400372 
1143.807405  	82.926925 
1144.771829  	83.442672 
1145.736254  	83.892650 
1146.700678  	84.255149 
1147.665103  	84.571217 
1148.629527  	84.904329 
1149.593952  	85.206961 
1150.558376  	85.447148 
1151.522800  	85.625271 
1152.487225  	85.799303 
1153.451649  	85.950165 
1154.416074  	86.083025 
1155.380498  	86.183957 
1156.344923  	86.256193 
1157.309347  	86.289372 
1158.273772  	86.303100 
1159.238196  	86.262815 
1160.202621  	86.278352 
1161.167045  	86.294536 
1162.131469  	86.221911 
1163.095894  	86.130679 
1164.060318  	86.037306 
1165.024743  	85.903447 
1165.989167  	85.707003 
1166.953592  	85.467396 
1167.918016  	85.199304 
1168.882441  	84.867157 
1169.846865  	84.458766 
1170.811290  	84.092832 
1171.775714  	83.760547 
1172.740138  	83.489575 
1173.704563  	83.267235 
1174.668987  	83.057712 
1175.633412  	83.028922 
1176.597836  	83.074547 
1177.562261  	83.078949 
1178.526685  	83.108029 
1179.491110  	83.150081 
1180.455534  	83.178427 
1181.419959  	83.214164 
1182.384383  	83.211125 
1183.348808  	83.144851 
1184.313232  	83.074621 
1185.277656  	82.928635 
1186.242081  	82.688492 
1187.206505  	82.455128 
1188.170930  	82.256640 
1189.135354  	81.984249 
1190.099779  	81.645446 
1191.064203  	81.332277 
