##TITLE=No Description
##DATA TYPE=INFRARED SPECTRUM
##XUNITS=1/CM
##YUNITS=%T
400.236149  	114.683634 
401.200574  	107.481069 
402.164998  	96.769551 
403.129423  	87.028744 
404.093847  	92.176532 
405.058272  	92.343270 
406.022696  	91.284447 
406.987120  	87.798240 
407.951545  	90.200831 
408.915969  	91.214454 
409.880394  	91.644596 
410.844818  	100.570395 
411.809243  	108.531368 
412.773667  	103.448985 
413.738092  	91.363620 
414.702516  	80.364072 
415.666941  	80.694987 
416.631365  	89.458059 
417.595789  	98.064825 
418.560214  	95.003903 
419.524638  	88.042292 
420.489063  	91.067895 
421.453487  	88.983722 
422.417912  	87.732981 
423.382336  	87.947697 
424.346761  	84.213895 
425.311185  	80.960853 
426.275610  	82.064552 
427.240034  	82.649501 
428.204458  	83.220413 
429.168883  	84.160806 
430.133307  	83.951823 
431.097732  	82.874561 
432.062156  	82.590251 
433.026581  	81.054175 
433.991005  	80.056694 
434.955430  	80.484165 
435.919854  	79.923990 
436.884279  	79.275326 
437.848703  	81.544987 
438.813127  	82.854404 
439.777552  	82.452253 
440.741976  	82.397954 
441.706401  	84.721349 
442.670825  	86.283837 
443.635250  	85.266464 
444.599674  	86.056779 
445.564099  	86.564814 
446.528523  	87.126153 
447.492948  	88.297055 
448.457372  	88.556449 
449.421796  	86.987454 
450.386221  	85.141345 
451.350645  	84.921539 
452.315070  	85.407626 
453.279494  	85.699739 
454.243919  	87.343614 
455.208343  	87.586574 
456.172768  	86.366743 
457.137192  	86.315111 
458.101617  	86.668452 
459.066041  	85.897327 
460.030466  	85.435244 
460.994890  	85.434201 
461.959314  	85.558666 
462.923739  	85.600396 
463.888163  	85.645357 
464.852588  	85.459378 
465.817012  	85.877769 
466.781437  	86.207985 
467.745861  	86.189268 
468.710286  	85.864612 
469.674710  	84.007264 
470.639135  	82.853501 
471.603559  	83.794501 
472.567983  	85.237879 
473.532408  	85.202067 
474.496832  	83.814741 
475.461257  	84.089047 
476.425681  	84.512385 
477.390106  	84.763763 
478.354530  	84.948954 
479.318955  	83.787860 
480.283379  	83.525108 
481.247804  	83.752755 
482.212228  	83.483276 
483.176652  	83.689082 
484.141077  	84.336195 
485.105501  	83.651489 
486.069926  	83.165384 
487.034350  	83.805815 
487.998775  	83.621399 
488.963199  	83.466802 
489.927624  	84.278972 
490.892048  	83.858228 
491.856473  	82.833011 
492.820897  	82.871748 
493.785321  	83.001115 
494.749746  	82.035765 
495.714170  	81.524504 
496.678595  	81.234186 
497.643019  	80.932919 
498.607444  	80.995375 
499.571868  	80.717260 
500.536293  	80.663693 
501.500717  	80.523646 
502.465142  	80.179347 
503.429566  	80.310326 
504.393990  	80.157603 
505.358415  	80.145840 
506.322839  	80.000168 
507.287264  	80.185600 
508.251688  	81.465426 
509.216113  	82.636411 
510.180537  	83.067419 
511.144962  	83.476222 
512.109386  	84.180611 
513.073811  	84.307453 
514.038235  	84.289852 
515.002660  	83.877525 
515.967084  	83.461783 
516.931508  	83.424280 
517.895933  	83.922179 
518.860357  	83.974839 
519.824782  	83.566766 
520.789206  	83.864976 
521.753631  	84.653773 
522.718055  	84.742671 
523.682480  	84.210420 
524.646904  	83.927720 
525.611329  	84.032946 
526.575753  	84.262662 
527.540177  	84.661834 
528.504602  	84.543856 
529.469026  	84.130202 
530.433451  	84.174185 
531.397875  	84.488218 
532.362300  	84.775829 
533.326724  	85.176369 
534.291149  	84.781607 
535.255573  	84.549008 
536.219998  	85.061033 
537.184422  	85.499887 
538.148846  	85.455204 
539.113271  	85.361711 
540.077695  	85.162392 
541.042120  	85.107063 
542.006544  	85.288094 
542.970969  	85.247256 
543.935393  	85.644336 
544.899818  	85.927887 
545.864242  	85.953532 
546.828667  	85.792876 
547.793091  	85.469305 
548.757515  	85.491224 
549.721940  	86.021356 
550.686364  	86.039174 
551.650789  	85.939276 
552.615213  	85.537614 
553.579638  	85.766356 
554.544062  	85.918563 
555.508487  	85.857415 
556.472911  	85.544384 
557.437336  	85.176549 
558.401760  	85.249883 
559.366184  	85.538874 
560.330609  	85.362044 
561.295033  	85.290432 
562.259458  	85.291851 
563.223882  	85.113388 
564.188307  	85.168380 
565.152731  	85.514396 
566.117156  	85.438993 
567.081580  	85.085092 
568.046005  	85.124380 
569.010429  	85.292017 
569.974853  	85.245319 
570.939278  	85.163865 
571.903702  	85.012538 
572.868127  	84.843487 
573.832551  	84.954059 
574.796976  	85.058143 
575.761400  	84.899823 
576.725825  	85.048873 
577.690249  	85.013097 
578.654674  	85.059062 
579.619098  	85.204719 
580.583523  	85.064173 
581.547947  	85.150163 
582.512371  	85.209615 
583.476796  	84.942432 
584.441220  	84.849060 
585.405645  	84.972431 
586.370069  	85.186586 
587.334494  	85.186464 
588.298918  	85.193532 
589.263343  	85.205950 
590.227767  	85.263276 
591.192192  	84.870396 
592.156616  	84.594369 
593.121040  	84.899463 
594.085465  	85.152659 
595.049889  	85.066434 
596.014314  	84.887639 
596.978738  	84.834335 
597.943163  	84.735835 
598.907587  	84.544812 
599.872012  	84.398550 
600.836436  	84.428143 
601.800861  	84.491307 
602.765285  	84.402053 
603.729709  	84.464687 
604.694134  	84.606426 
605.658558  	84.738193 
606.622983  	84.719365 
607.587407  	84.321962 
608.551832  	84.283622 
609.516256  	84.450321 
610.480681  	84.300192 
611.445105  	84.196192 
612.409530  	84.524302 
613.373954  	84.609697 
614.338378  	84.113222 
615.302803  	83.802831 
616.267227  	83.769927 
617.231652  	84.021089 
618.196076  	83.872920 
619.160501  	83.688783 
620.124925  	83.525907 
621.089350  	83.468816 
622.053774  	83.568545 
623.018199  	83.726077 
623.982623  	83.431890 
624.947047  	83.299698 
625.911472  	83.465496 
626.875896  	83.446507 
627.840321  	83.249058 
628.804745  	83.102460 
629.769170  	82.793709 
630.733594  	82.345207 
631.698019  	82.305543 
632.662443  	82.549757 
633.626868  	82.853691 
634.591292  	83.075019 
635.555717  	83.147737 
636.520141  	83.429689 
637.484565  	83.388707 
638.448990  	83.260960 
639.413414  	83.276491 
640.377839  	83.193714 
641.342263  	83.114192 
642.306688  	82.906095 
643.271112  	82.923833 
644.235537  	82.934056 
645.199961  	82.837751 
646.164386  	82.844028 
647.128810  	82.786809 
648.093234  	82.709097 
649.057659  	82.602047 
650.022083  	82.468189 
650.986508  	82.529327 
651.950932  	82.474064 
652.915357  	82.242697 
653.879781  	82.173662 
654.844206  	82.171881 
655.808630  	82.089359 
656.773055  	81.958548 
657.737479  	81.994490 
658.701903  	81.831106 
659.666328  	81.579174 
660.630752  	81.448736 
661.595177  	81.403556 
662.559601  	81.291040 
663.524026  	81.230009 
664.488450  	81.260493 
665.452875  	81.209785 
666.417299  	81.228252 
667.381724  	81.557918 
668.346148  	81.621695 
669.310572  	80.650131 
670.274997  	80.334693 
671.239421  	80.322982 
672.203846  	80.346555 
673.168270  	80.144797 
674.132695  	79.847762 
675.097119  	79.609785 
676.061544  	79.466744 
677.025968  	79.251029 
677.990393  	78.906525 
678.954817  	78.594748 
679.919241  	78.531805 
680.883666  	78.495981 
681.848090  	78.473252 
682.812515  	78.474090 
683.776939  	78.304600 
684.741364  	78.145411 
685.705788  	78.025589 
686.670213  	78.002002 
687.634637  	77.773560 
688.599062  	77.401111 
689.563486  	77.033839 
690.527910  	76.730822 
691.492335  	76.377658 
692.456759  	76.064835 
693.421184  	75.609938 
694.385608  	75.200975 
695.350033  	74.794224 
696.314457  	74.232921 
697.278882  	73.512094 
698.243306  	72.736706 
699.207731  	71.875082 
700.172155  	71.060260 
701.136580  	70.285663 
702.101004  	69.619733 
703.065428  	69.050980 
704.029853  	68.438014 
704.994277  	67.735873 
705.958702  	67.057376 
706.923126  	66.220615 
707.887551  	65.371161 
708.851975  	64.644888 
709.816400  	63.679210 
710.780824  	62.511810 
711.745249  	61.335271 
712.709673  	60.179330 
713.674097  	58.796644 
714.638522  	57.370039 
715.602946  	55.939899 
716.567371  	54.204850 
717.531795  	52.483600 
718.496220  	50.888274 
719.460644  	49.447566 
720.425069  	48.176090 
721.389493  	47.127278 
722.353918  	46.442336 
723.318342  	46.421626 
724.282766  	47.221472 
725.247191  	48.923831 
726.211615  	51.326906 
727.176040  	54.084447 
728.140464  	56.753985 
729.104889  	59.455675 
730.069313  	62.171146 
731.033738  	64.947818 
731.998162  	67.644485 
732.962587  	70.320103 
733.927011  	73.061430 
734.891435  	75.887454 
735.855860  	78.603180 
736.820284  	81.090189 
737.784709  	83.284658 
738.749133  	85.153617 
739.713558  	86.618407 
740.677982  	87.855278 
741.642407  	88.768077 
742.606831  	89.428234 
743.571256  	89.832210 
744.535680  	90.049961 
745.500104  	90.224096 
746.464529  	90.224770 
747.428953  	90.134381 
748.393378  	90.127458 
749.357802  	90.009758 
750.322227  	89.929226 
751.286651  	89.753143 
752.251076  	89.593149 
753.215500  	89.557676 
754.179925  	89.419215 
755.144349  	89.265540 
756.108774  	89.228295 
757.073198  	89.109795 
758.037622  	88.958954 
759.002047  	88.822947 
759.966471  	88.675337 
760.930896  	88.563697 
761.895320  	88.456153 
762.859745  	88.363117 
763.824169  	88.271612 
764.788594  	88.080262 
765.753018  	87.804127 
766.717443  	87.650738 
767.681867  	87.455397 
768.646291  	87.246966 
769.610716  	87.063838 
770.575140  	87.019170 
771.539565  	86.918270 
772.503989  	86.679335 
773.468414  	86.497138 
774.432838  	86.454242 
775.397263  	86.301719 
776.361687  	86.147281 
777.326112  	86.049322 
778.290536  	85.981696 
779.254960  	85.885698 
780.219385  	85.737782 
781.183809  	85.615632 
782.148234  	85.768715 
783.112658  	85.764199 
784.077083  	85.047080 
785.041507  	84.498458 
786.005932  	84.183921 
786.970356  	83.915376 
787.934781  	83.466056 
788.899205  	83.229835 
789.863629  	83.044240 
790.828054  	82.759731 
791.792478  	82.404670 
792.756903  	82.248347 
793.721327  	82.460612 
794.685752  	82.908487 
795.650176  	83.538347 
796.614601  	84.145875 
797.579025  	84.560686 
798.543450  	84.627257 
799.507874  	84.580366 
800.472298  	84.603008 
801.436723  	84.591123 
802.401147  	84.511527 
803.365572  	84.439146 
804.329996  	84.422019 
805.294421  	84.316231 
806.258845  	84.243498 
807.223270  	84.264195 
808.187694  	84.219299 
809.152119  	84.208670 
810.116543  	84.183369 
811.080967  	84.112830 
812.045392  	84.069151 
813.009816  	84.060740 
813.974241  	84.124673 
814.938665  	84.160646 
815.903090  	84.025854 
816.867514  	83.872579 
817.831939  	83.853291 
818.796363  	83.886943 
819.760788  	83.816639 
820.725212  	83.733776 
821.689637  	83.668645 
822.654061  	83.548965 
823.618485  	83.417974 
824.582910  	83.254923 
825.547334  	83.043820 
826.511759  	82.889632 
827.476183  	82.755766 
828.440608  	82.596155 
829.405032  	82.409726 
830.369457  	82.236814 
831.333881  	82.064418 
832.298306  	81.828314 
833.262730  	81.629587 
834.227154  	81.429514 
835.191579  	81.189262 
836.156003  	80.920350 
837.120428  	80.578906 
838.084852  	80.177820 
839.049277  	79.906237 
840.013701  	79.662200 
840.978126  	79.327781 
841.942550  	79.012812 
842.906975  	78.707120 
843.871399  	78.297776 
844.835823  	77.946467 
845.800248  	77.821695 
846.764672  	77.803478 
847.729097  	77.925445 
848.693521  	78.182412 
849.657946  	78.586861 
850.622370  	79.016281 
851.586795  	79.361179 
852.551219  	79.518569 
853.515644  	79.640058 
854.480068  	79.833141 
855.444492  	79.970363 
856.408917  	80.046912 
857.373341  	80.129802 
858.337766  	80.294019 
859.302190  	80.455191 
860.266615  	80.443604 
861.231039  	80.345342 
862.195464  	80.208837 
863.159888  	79.935881 
864.124313  	79.649452 
865.088737  	79.245743 
866.053161  	78.627594 
867.017586  	77.750611 
867.982010  	76.598454 
868.946435  	75.204265 
869.910859  	73.468010 
870.875284  	71.637393 
871.839708  	70.696475 
872.804133  	71.478254 
873.768557  	73.499202 
874.732982  	75.634337 
875.697406  	77.237127 
876.661831  	78.455278 
877.626255  	79.487556 
878.590679  	80.315764 
879.555104  	80.996743 
880.519528  	81.605054 
881.483953  	82.142674 
882.448377  	82.640075 
883.412802  	83.119096 
884.377226  	83.521059 
885.341651  	83.704195 
886.306075  	83.787579 
887.270500  	83.863584 
888.234924  	83.939047 
889.199348  	83.939454 
890.163773  	83.875094 
891.128197  	83.816582 
892.092622  	83.791748 
893.057046  	83.702719 
894.021471  	83.601507 
894.985895  	83.542961 
895.950320  	83.447170 
896.914744  	83.368245 
897.879169  	83.347884 
898.843593  	83.362599 
899.808017  	83.419145 
900.772442  	83.457797 
901.736866  	83.450448 
902.701291  	83.572043 
903.665715  	83.725598 
904.630140  	83.790655 
905.594564  	83.868106 
906.558989  	84.032027 
907.523413  	84.192281 
908.487838  	84.260729 
909.452262  	84.332870 
910.416686  	84.421222 
911.381111  	84.469738 
912.345535  	84.453362 
913.309960  	84.427086 
914.274384  	84.431963 
915.238809  	84.419530 
916.203233  	84.328688 
917.167658  	84.270030 
918.132082  	84.243761 
919.096507  	84.232034 
920.060931  	84.230748 
921.025355  	84.192086 
921.989780  	84.116298 
922.954204  	84.003918 
923.918629  	83.867843 
924.883053  	83.802394 
925.847478  	83.770224 
926.811902  	83.652878 
927.776327  	83.547871 
928.740751  	83.476775 
929.705176  	83.435431 
930.669600  	83.355219 
931.634024  	83.251683 
932.598449  	83.166571 
933.562873  	83.115691 
934.527298  	83.064310 
935.491722  	82.900279 
936.456147  	82.783888 
937.420571  	82.745860 
938.384996  	82.617510 
939.349420  	82.481952 
940.313845  	82.405752 
941.278269  	82.287181 
942.242694  	82.175418 
943.207118  	82.059230 
944.171542  	81.952402 
945.135967  	81.846856 
946.100391  	81.701645 
947.064816  	81.524777 
948.029240  	81.341671 
948.993665  	81.204711 
949.958089  	81.060061 
950.922514  	80.889112 
951.886938  	80.759021 
952.851363  	80.563140 
953.815787  	80.320764 
954.780211  	80.163592 
955.744636  	80.054541 
956.709060  	79.873091 
957.673485  	79.595321 
958.637909  	79.307401 
959.602334  	79.050639 
960.566758  	78.775794 
961.531183  	78.496822 
962.495607  	78.248408 
963.460032  	77.987511 
964.424456  	77.720338 
965.388880  	77.429769 
966.353305  	77.193304 
967.317729  	77.041937 
968.282154  	76.863001 
969.246578  	76.713657 
970.211003  	76.721972 
971.175427  	76.803808 
972.139852  	76.965290 
973.104276  	77.207494 
974.068701  	77.553093 
975.033125  	77.924099 
975.997549  	78.261707 
976.961974  	78.584155 
977.926398  	78.880289 
978.890823  	79.132012 
979.855247  	79.331138 
980.819672  	79.468557 
981.784096  	79.530900 
982.748521  	79.562596 
983.712945  	79.567871 
984.677370  	79.512728 
985.641794  	79.429175 
986.606218  	79.347507 
987.570643  	79.274146 
988.535067  	79.209303 
989.499492  	79.183663 
990.463916  	79.130918 
991.428341  	79.033596 
992.392765  	78.905058 
993.357190  	78.731491 
994.321614  	78.583455 
995.286039  	78.440553 
996.250463  	78.238385 
997.214888  	78.013756 
998.179312  	77.789918 
999.143736  	77.531116 
1000.108161  	77.256015 
1001.072585  	76.982817 
1002.037010  	76.710696 
1003.001434  	76.364494 
1003.965859  	75.947661 
1004.930283  	75.516238 
1005.894708  	75.012961 
1006.859132  	74.419795 
1007.823557  	73.752387 
1008.787981  	72.959436 
1009.752405  	72.098900 
1010.716830  	71.103170 
1011.681254  	69.899524 
1012.645679  	68.553917 
1013.610103  	67.107072 
1014.574528  	65.650267 
1015.538952  	64.512817 
1016.503377  	64.043035 
1017.467801  	64.282020 
1018.432226  	65.150857 
1019.396650  	66.494248 
1020.361074  	68.030449 
1021.325499  	69.556185 
1022.289923  	70.986620 
1023.254348  	72.436303 
1024.218772  	74.121615 
1025.183197  	75.969777 
1026.147621  	77.616536 
1027.112046  	78.756546 
1028.076470  	79.337684 
1029.040895  	79.445106 
1030.005319  	79.272350 
1030.969743  	79.025487 
1031.934168  	78.748312 
1032.898592  	78.424726 
1033.863017  	78.076127 
1034.827441  	77.699561 
1035.791866  	77.347626 
1036.756290  	77.058490 
1037.720715  	76.781929 
1038.685139  	76.528752 
1039.649564  	76.326323 
1040.613988  	76.105185 
1041.578412  	75.867022 
1042.542837  	75.705757 
1043.507261  	75.637370 
1044.471686  	75.548646 
1045.436110  	75.455907 
1046.400535  	75.421761 
1047.364959  	75.368866 
1048.329384  	75.297698 
1049.293808  	75.310819 
1050.258233  	75.338595 
1051.222657  	75.290389 
1052.187081  	75.186748 
1053.151506  	75.064146 
1054.115930  	74.974798 
1055.080355  	74.817194 
1056.044779  	74.581044 
1057.009204  	74.342898 
1057.973628  	74.132295 
1058.938053  	73.851172 
1059.902477  	73.455010 
1060.866902  	73.043690 
1061.831326  	72.729713 
1062.795751  	72.392536 
1063.760175  	71.937861 
1064.724599  	71.420911 
1065.689024  	70.946442 
1066.653448  	70.469489 
1067.617873  	69.907179 
1068.582297  	69.362113 
1069.546722  	68.848777 
1070.511146  	68.245561 
1071.475571  	67.576569 
1072.439995  	66.923144 
1073.404420  	66.250654 
1074.368844  	65.496093 
1075.333268  	64.741199 
1076.297693  	63.969445 
1077.262117  	63.132990 
1078.226542  	62.317799 
1079.190966  	61.571165 
1080.155391  	60.860255 
1081.119815  	60.216718 
1082.084240  	59.608846 
1083.048664  	59.119053 
1084.013089  	58.735427 
1084.977513  	58.377206 
1085.941937  	58.023228 
1086.906362  	57.715858 
1087.870786  	57.438629 
1088.835211  	57.186843 
1089.799635  	56.920626 
1090.764060  	56.676942 
1091.728484  	56.528966 
1092.692909  	56.378576 
1093.657333  	56.263591 
1094.621758  	56.248374 
1095.586182  	56.308660 
1096.550606  	56.431487 
1097.515031  	56.670079 
1098.479455  	56.972695 
1099.443880  	57.336342 
1100.408304  	57.791969 
1101.372729  	58.337929 
1102.337153  	58.982704 
1103.301578  	59.670876 
1104.266002  	60.368871 
1105.230427  	61.091247 
1106.194851  	61.818438 
1107.159275  	62.526722 
1108.123700  	63.179306 
1109.088124  	63.799608 
1110.052549  	64.320893 
1111.016973  	64.686016 
1111.981398  	64.914543 
1112.945822  	65.085766 
1113.910247  	65.143197 
1114.874671  	65.051810 
1115.839096  	64.905825 
1116.803520  	64.798162 
1117.767945  	64.774062 
1118.732369  	64.871890 
1119.696793  	65.089165 
1120.661218  	65.406862 
1121.625642  	65.757046 
1122.590067  	66.233835 
1123.554491  	66.805334 
1124.518916  	67.392584 
1125.483340  	68.105157 
1126.447765  	68.902919 
1127.412189  	69.723379 
1128.376614  	70.611807 
1129.341038  	71.585362 
1130.305462  	72.623694 
1131.269887  	73.692138 
1132.234311  	74.697936 
1133.198736  	75.702996 
1134.163160  	76.768902 
1135.127585  	77.850348 
1136.092009  	78.823300 
1137.056434  	79.722460 
1138.020858  	80.634357 
1138.985283  	81.466139 
1139.949707  	82.162034 
1140.914131  	82.827539 
1141.878556  	83.471377 
1142.842980  	83.999095 
1143.807405  	84.484946 
1144.771829  	84.965768 
1145.736254  	85.399407 
1146.700678  	85.774933 
1147.665103  	86.095104 
1148.629527  	86.394976 
1149.593952  	86.681303 
1150.558376  	86.942563 
1151.522800  	87.111110 
1152.487225  	87.237496 
1153.451649  	87.356447 
1154.416074  	87.465224 
1155.380498  	87.526603 
1156.344923  	87.578897 
1157.309347  	87.650806 
1158.273772  	87.696107 
1159.238196  	87.644781 
1160.202621  	87.623535 
1161.167045  	87.610268 
1162.131469  	87.524236 
1163.095894  	87.427428 
1164.060318  	87.354517 
1165.024743  	87.239412 
1165.989167  	87.020908 
1166.953592  	86.819229 
1167.918016  	86.597070 
1168.882441  	86.259185 
1169.846865  	85.861144 
1170.811290  	85.492005 
1171.775714  	85.198431 
1172.740138  	84.973041 
1173.704563  	84.754551 
1174.668987  	84.593486 
1175.633412  	84.578906 
1176.597836  	84.610664 
1177.562261  	84.612146 
1178.526685  	84.610319 
1179.491110  	84.631362 
1180.455534  	84.648932 
1181.419959  	84.662969 
1182.384383  	84.636395 
1183.348808  	84.553411 
1184.313232  	84.467248 
1185.277656  	84.325067 
1186.242081  	84.143465 
1187.206505  	83.961286 
1188.170930  	83.721187 
1189.135354  	83.426784 
1190.099779  	83.132464 
1191.064203  	82.843492 
