##TITLE=No Description
##DATA TYPE=INFRARED SPECTRUM
##XUNITS=1/CM
##YUNITS=%T
400.236149  	159.972436 
401.200574  	133.230338 
402.164998  	87.186434 
403.129423  	82.243537 
404.093847  	96.974844 
405.058272  	84.723685 
406.022696  	77.673692 
406.987120  	76.548540 
407.951545  	81.348551 
408.915969  	81.431709 
409.880394  	76.765258 
410.844818  	80.668921 
411.809243  	92.667748 
412.773667  	94.074995 
413.738092  	81.386957 
414.702516  	75.606102 
415.666941  	76.881889 
416.631365  	82.908627 
417.595789  	89.490454 
418.560214  	89.386167 
419.524638  	81.514434 
420.489063  	82.317562 
421.453487  	84.150733 
422.417912  	83.540939 
423.382336  	82.866303 
424.346761  	79.773958 
425.311185  	76.445619 
426.275610  	77.600564 
427.240034  	77.075704 
428.204458  	78.270282 
429.168883  	80.256422 
430.133307  	79.817058 
431.097732  	78.654326 
432.062156  	77.204981 
433.026581  	75.288940 
433.991005  	75.614032 
434.955430  	76.774228 
435.919854  	76.073411 
436.884279  	76.733065 
437.848703  	79.617896 
438.813127  	79.737425 
439.777552  	79.237210 
440.741976  	79.577877 
441.706401  	80.637030 
442.670825  	81.508613 
443.635250  	81.356112 
444.599674  	82.211804 
445.564099  	83.613804 
446.528523  	83.374440 
447.492948  	82.691603 
448.457372  	84.101557 
449.421796  	83.674292 
450.386221  	82.275563 
451.350645  	81.689071 
452.315070  	80.952661 
453.279494  	81.499787 
454.243919  	82.590227 
455.208343  	82.274475 
456.172768  	81.730585 
457.137192  	80.766779 
458.101617  	81.206948 
459.066041  	82.414497 
460.030466  	82.701578 
460.994890  	82.720937 
461.959314  	82.401157 
462.923739  	82.762979 
463.888163  	82.782518 
464.852588  	82.388421 
465.817012  	82.782714 
466.781437  	82.421106 
467.745861  	81.246043 
468.710286  	80.711612 
469.674710  	80.452384 
470.639135  	80.904160 
471.603559  	80.788581 
472.567983  	81.111652 
473.532408  	82.477087 
474.496832  	81.947139 
475.461257  	81.587517 
476.425681  	81.146312 
477.390106  	81.275004 
478.354530  	82.111368 
479.318955  	81.305647 
480.283379  	80.413238 
481.247804  	80.814232 
482.212228  	80.879024 
483.176652  	81.645703 
484.141077  	82.131496 
485.105501  	81.657498 
486.069926  	80.801468 
487.034350  	80.781250 
487.998775  	80.572629 
488.963199  	80.653650 
489.927624  	80.963837 
490.892048  	80.719418 
491.856473  	80.125530 
492.820897  	80.248257 
493.785321  	79.964613 
494.749746  	79.457747 
495.714170  	79.081785 
496.678595  	78.680321 
497.643019  	79.020142 
498.607444  	79.069271 
499.571868  	78.079080 
500.536293  	77.911334 
501.500717  	77.600832 
502.465142  	77.103569 
503.429566  	77.125977 
504.393990  	77.297379 
505.358415  	77.552215 
506.322839  	76.910101 
507.287264  	77.097342 
508.251688  	78.766194 
509.216113  	80.032444 
510.180537  	80.480522 
511.144962  	80.957832 
512.109386  	81.630909 
513.073811  	81.948870 
514.038235  	82.022672 
515.002660  	81.767187 
515.967084  	81.499080 
516.931508  	81.322929 
517.895933  	81.888131 
518.860357  	81.885156 
519.824782  	81.374745 
520.789206  	81.842658 
521.753631  	82.265464 
522.718055  	82.096067 
523.682480  	81.780171 
524.646904  	81.520661 
525.611329  	81.270243 
526.575753  	81.773311 
527.540177  	82.392440 
528.504602  	82.266471 
529.469026  	82.242454 
530.433451  	82.810311 
531.397875  	82.876620 
532.362300  	82.819785 
533.326724  	83.332213 
534.291149  	83.003743 
535.255573  	82.561730 
536.219998  	82.733481 
537.184422  	83.288526 
538.148846  	82.950841 
539.113271  	83.141970 
540.077695  	83.248532 
541.042120  	83.655546 
542.006544  	83.785241 
542.970969  	83.684274 
543.935393  	83.398501 
544.899818  	83.302568 
545.864242  	83.530519 
546.828667  	83.596352 
547.793091  	83.211428 
548.757515  	83.420525 
549.721940  	83.748709 
550.686364  	83.819987 
551.650789  	83.892268 
552.615213  	83.628139 
553.579638  	83.886809 
554.544062  	83.978405 
555.508487  	83.942083 
556.472911  	83.582260 
557.437336  	83.235054 
558.401760  	83.553653 
559.366184  	83.999175 
560.330609  	83.967841 
561.295033  	83.855606 
562.259458  	83.874767 
563.223882  	83.487457 
564.188307  	83.227494 
565.152731  	83.586370 
566.117156  	83.665151 
567.081580  	83.163875 
568.046005  	83.141742 
569.010429  	83.272120 
569.974853  	83.435295 
570.939278  	83.263039 
571.903702  	83.326899 
572.868127  	83.333582 
573.832551  	83.191339 
574.796976  	83.195693 
575.761400  	82.781108 
576.725825  	82.766777 
577.690249  	83.177441 
578.654674  	83.312379 
579.619098  	83.070815 
580.583523  	82.791070 
581.547947  	83.237455 
582.512371  	83.463430 
583.476796  	83.191061 
584.441220  	83.001311 
585.405645  	83.129446 
586.370069  	83.468993 
587.334494  	83.483929 
588.298918  	83.411734 
589.263343  	83.344534 
590.227767  	83.352126 
591.192192  	82.909441 
592.156616  	82.570532 
593.121040  	83.105151 
594.085465  	83.292340 
595.049889  	83.258274 
596.014314  	83.265604 
596.978738  	83.064990 
597.943163  	83.108306 
598.907587  	83.068494 
599.872012  	82.664934 
600.836436  	82.835348 
601.800861  	83.167120 
602.765285  	83.136031 
603.729709  	82.993398 
604.694134  	82.909597 
605.658558  	82.928704 
606.622983  	83.043813 
607.587407  	82.898407 
608.551832  	82.785270 
609.516256  	82.785325 
610.480681  	82.722369 
611.445105  	82.660483 
612.409530  	82.921352 
613.373954  	83.055168 
614.338378  	82.743036 
615.302803  	82.343941 
616.267227  	82.195157 
617.231652  	82.541712 
618.196076  	82.714243 
619.160501  	82.564673 
620.124925  	82.275087 
621.089350  	82.118737 
622.053774  	82.061315 
623.018199  	82.243303 
623.982623  	82.067716 
624.947047  	81.868072 
625.911472  	81.731903 
626.875896  	81.730895 
627.840321  	81.535890 
628.804745  	81.568728 
629.769170  	81.297151 
630.733594  	80.839166 
631.698019  	80.634305 
632.662443  	80.799389 
633.626868  	81.056748 
634.591292  	81.372201 
635.555717  	81.324007 
636.520141  	81.550927 
637.484565  	81.749341 
638.448990  	81.836553 
639.413414  	81.683666 
640.377839  	81.618852 
641.342263  	81.518637 
642.306688  	81.253311 
643.271112  	81.136390 
644.235537  	81.151495 
645.199961  	81.162494 
646.164386  	81.295818 
647.128810  	81.337867 
648.093234  	81.215183 
649.057659  	81.010582 
650.022083  	80.965561 
650.986508  	81.001398 
651.950932  	80.976472 
652.915357  	80.842743 
653.879781  	80.806713 
654.844206  	80.764487 
655.808630  	80.613235 
656.773055  	80.390525 
657.737479  	80.421131 
658.701903  	80.200244 
659.666328  	79.999607 
660.630752  	80.036966 
661.595177  	80.055756 
662.559601  	79.891918 
663.524026  	79.709495 
664.488450  	79.692753 
665.452875  	79.529990 
666.417299  	79.507383 
667.381724  	79.691602 
668.346148  	79.188083 
669.310572  	78.770600 
670.274997  	78.622209 
671.239421  	78.515131 
672.203846  	78.472141 
673.168270  	78.419961 
674.132695  	78.092197 
675.097119  	77.701664 
676.061544  	77.406371 
677.025968  	77.286243 
677.990393  	77.002381 
678.954817  	76.666534 
679.919241  	76.474511 
680.883666  	76.518383 
681.848090  	76.506842 
682.812515  	76.406118 
683.776939  	76.171388 
684.741364  	76.068640 
685.705788  	75.949568 
686.670213  	75.855070 
687.634637  	75.504257 
688.599062  	75.085913 
689.563486  	74.727610 
690.527910  	74.427548 
691.492335  	74.018806 
692.456759  	73.674513 
693.421184  	73.240211 
694.385608  	72.796785 
695.350033  	72.162400 
696.314457  	71.487245 
697.278882  	70.729291 
698.243306  	69.846094 
699.207731  	68.945913 
700.172155  	68.184817 
701.136580  	67.368210 
702.101004  	66.617256 
703.065428  	65.899152 
704.029853  	65.216315 
704.994277  	64.488079 
705.958702  	63.713843 
706.923126  	62.852724 
707.887551  	61.970060 
708.851975  	61.046029 
709.816400  	60.015192 
710.780824  	58.843658 
711.745249  	57.591904 
712.709673  	56.296693 
713.674097  	54.904383 
714.638522  	53.468778 
715.602946  	51.900567 
716.567371  	50.168202 
717.531795  	48.454999 
718.496220  	46.788946 
719.460644  	45.332052 
720.425069  	44.108815 
721.389493  	43.216203 
722.353918  	42.765376 
723.318342  	42.896775 
724.282766  	43.829217 
725.247191  	45.676166 
726.211615  	48.141222 
727.176040  	50.880351 
728.140464  	53.616886 
729.104889  	56.374520 
730.069313  	59.131447 
731.033738  	61.891635 
731.998162  	64.609932 
732.962587  	67.455872 
733.927011  	70.345072 
734.891435  	73.128021 
735.855860  	75.792453 
736.820284  	78.277909 
737.784709  	80.634823 
738.749133  	82.811095 
739.713558  	84.592327 
740.677982  	85.995935 
741.642407  	86.992543 
742.606831  	87.707052 
743.571256  	88.152724 
744.535680  	88.406787 
745.500104  	88.619828 
746.464529  	88.787538 
747.428953  	88.814201 
748.393378  	88.762922 
749.357802  	88.644116 
750.322227  	88.608445 
751.286651  	88.506451 
752.251076  	88.399797 
753.215500  	88.322107 
754.179925  	88.146352 
755.144349  	88.016458 
756.108774  	87.930685 
757.073198  	87.804745 
758.037622  	87.661240 
759.002047  	87.455663 
759.966471  	87.369103 
760.930896  	87.291090 
761.895320  	87.230222 
762.859745  	87.130265 
763.824169  	87.006844 
764.788594  	86.824798 
765.753018  	86.626660 
766.717443  	86.323139 
767.681867  	86.077604 
768.646291  	85.911042 
769.610716  	85.832939 
770.575140  	85.759842 
771.539565  	85.660990 
772.503989  	85.446762 
773.468414  	85.305282 
774.432838  	85.214735 
775.397263  	85.183374 
776.361687  	85.035714 
777.326112  	84.795031 
778.290536  	84.623856 
779.254960  	84.564908 
780.219385  	84.285223 
781.183809  	84.309495 
782.148234  	83.982810 
783.112658  	83.920509 
784.077083  	83.694929 
785.041507  	83.289589 
786.005932  	83.063407 
786.970356  	82.686951 
787.934781  	82.298127 
788.899205  	81.993737 
789.863629  	81.744283 
790.828054  	81.422411 
791.792478  	81.087147 
792.756903  	80.963670 
793.721327  	81.154641 
794.685752  	81.499819 
795.650176  	82.111959 
796.614601  	82.763121 
797.579025  	83.192296 
798.543450  	83.275842 
799.507874  	83.301207 
800.472298  	83.350073 
801.436723  	83.340911 
802.401147  	83.266058 
803.365572  	83.262475 
804.329996  	83.246035 
805.294421  	83.100820 
806.258845  	83.013152 
807.223270  	83.103632 
808.187694  	83.088206 
809.152119  	83.086650 
810.116543  	83.086206 
811.080967  	82.991054 
812.045392  	82.918460 
813.009816  	82.907409 
813.974241  	82.942687 
814.938665  	82.934287 
815.903090  	82.860353 
816.867514  	82.842631 
817.831939  	82.840843 
818.796363  	82.852140 
819.760788  	82.827276 
820.725212  	82.714847 
821.689637  	82.483691 
822.654061  	82.391330 
823.618485  	82.339321 
824.582910  	82.126938 
825.547334  	81.866311 
826.511759  	81.734641 
827.476183  	81.623402 
828.440608  	81.499099 
829.405032  	81.313228 
830.369457  	81.100081 
831.333881  	80.903353 
832.298306  	80.681667 
833.262730  	80.417350 
834.227154  	80.174146 
835.191579  	79.956406 
836.156003  	79.650621 
837.120428  	79.317311 
838.084852  	78.914422 
839.049277  	78.595358 
840.013701  	78.285022 
840.978126  	77.931458 
841.942550  	77.636334 
842.906975  	77.256410 
843.871399  	76.793586 
844.835823  	76.431458 
845.800248  	76.242941 
846.764672  	76.227468 
847.729097  	76.364137 
848.693521  	76.573121 
849.657946  	76.915952 
850.622370  	77.347308 
851.586795  	77.713488 
852.551219  	77.875339 
853.515644  	78.043143 
854.480068  	78.255683 
855.444492  	78.405118 
856.408917  	78.477511 
857.373341  	78.594175 
858.337766  	78.781754 
859.302190  	78.933050 
860.266615  	78.902642 
861.231039  	78.783752 
862.195464  	78.678525 
863.159888  	78.433329 
864.124313  	78.087465 
865.088737  	77.617987 
866.053161  	76.938025 
867.017586  	75.955583 
867.982010  	74.708453 
868.946435  	73.132347 
869.910859  	71.163031 
870.875284  	69.159559 
871.839708  	68.150002 
872.804133  	68.901088 
873.768557  	71.083552 
874.732982  	73.417148 
875.697406  	75.154823 
876.661831  	76.339413 
877.626255  	77.408461 
878.590679  	78.408866 
879.555104  	79.251682 
880.519528  	79.982519 
881.483953  	80.622343 
882.448377  	81.180191 
883.412802  	81.686470 
884.377226  	82.066197 
885.341651  	82.361457 
886.306075  	82.589213 
887.270500  	82.747491 
888.234924  	82.829812 
889.199348  	82.826863 
890.163773  	82.823801 
891.128197  	82.815805 
892.092622  	82.743620 
893.057046  	82.578970 
894.021471  	82.482678 
894.985895  	82.493788 
895.950320  	82.416431 
896.914744  	82.272536 
897.879169  	82.273784 
898.843593  	82.323208 
899.808017  	82.386406 
900.772442  	82.444681 
901.736866  	82.512484 
902.701291  	82.676229 
903.665715  	82.800984 
904.630140  	82.856860 
905.594564  	82.966109 
906.558989  	83.136450 
907.523413  	83.275581 
908.487838  	83.347640 
909.452262  	83.439202 
910.416686  	83.582131 
911.381111  	83.692217 
912.345535  	83.684583 
913.309960  	83.665436 
914.274384  	83.668379 
915.238809  	83.661219 
916.203233  	83.590254 
917.167658  	83.552368 
918.132082  	83.545288 
919.096507  	83.526518 
920.060931  	83.520297 
921.025355  	83.477211 
921.989780  	83.366232 
922.954204  	83.264904 
923.918629  	83.176462 
924.883053  	83.100685 
925.847478  	83.002095 
926.811902  	82.881869 
927.776327  	82.801321 
928.740751  	82.732716 
929.705176  	82.716992 
930.669600  	82.635205 
931.634024  	82.514738 
932.598449  	82.471492 
933.562873  	82.414773 
934.527298  	82.311491 
935.491722  	82.151280 
936.456147  	82.026743 
937.420571  	81.988904 
938.384996  	81.878962 
939.349420  	81.726612 
940.313845  	81.613467 
941.278269  	81.556276 
942.242694  	81.452300 
943.207118  	81.314445 
944.171542  	81.234239 
945.135967  	81.078873 
946.100391  	80.893120 
947.064816  	80.710153 
948.029240  	80.543781 
948.993665  	80.417888 
949.958089  	80.273208 
950.922514  	80.126078 
951.886938  	79.982172 
952.851363  	79.793147 
953.815787  	79.564035 
954.780211  	79.372070 
955.744636  	79.186242 
956.709060  	78.956944 
957.673485  	78.694856 
958.637909  	78.434655 
959.602334  	78.166086 
960.566758  	77.904620 
961.531183  	77.608013 
962.495607  	77.272145 
963.460032  	76.995506 
964.424456  	76.735163 
965.388880  	76.388262 
966.353305  	76.118091 
967.317729  	75.929281 
968.282154  	75.717346 
969.246578  	75.560125 
970.211003  	75.503890 
971.175427  	75.570882 
972.139852  	75.721926 
973.104276  	75.947865 
974.068701  	76.264040 
975.033125  	76.644771 
975.997549  	77.022720 
976.961974  	77.357110 
977.926398  	77.652220 
978.890823  	77.956985 
979.855247  	78.185067 
980.819672  	78.292583 
981.784096  	78.399434 
982.748521  	78.514816 
983.712945  	78.529178 
984.677370  	78.474788 
985.641794  	78.408962 
986.606218  	78.348699 
987.570643  	78.278357 
988.535067  	78.187613 
989.499492  	78.127858 
990.463916  	78.082499 
991.428341  	78.014592 
992.392765  	77.886009 
993.357190  	77.732176 
994.321614  	77.625096 
995.286039  	77.501120 
996.250463  	77.317861 
997.214888  	77.081024 
998.179312  	76.857063 
999.143736  	76.581442 
1000.108161  	76.262590 
1001.072585  	75.977780 
1002.037010  	75.728406 
1003.001434  	75.393340 
1003.965859  	74.969782 
1004.930283  	74.510765 
1005.894708  	74.009023 
1006.859132  	73.402604 
1007.823557  	72.687042 
1008.787981  	71.892578 
1009.752405  	70.972135 
1010.716830  	69.858483 
1011.681254  	68.558416 
1012.645679  	67.083401 
1013.610103  	65.439386 
1014.574528  	63.798873 
1015.538952  	62.475975 
1016.503377  	61.791479 
1017.467801  	61.898699 
1018.432226  	62.716524 
1019.396650  	64.048223 
1020.361074  	65.628716 
1021.325499  	67.240785 
1022.289923  	68.710522 
1023.254348  	70.192741 
1024.218772  	71.918583 
1025.183197  	73.796072 
1026.147621  	75.482795 
1027.112046  	76.729711 
1028.076470  	77.347308 
1029.040895  	77.496695 
1030.005319  	77.414024 
1030.969743  	77.221582 
1031.934168  	77.013716 
1032.898592  	76.768053 
1033.863017  	76.403408 
1034.827441  	76.003826 
1035.791866  	75.707666 
1036.756290  	75.456493 
1037.720715  	75.150902 
1038.685139  	74.847823 
1039.649564  	74.615824 
1040.613988  	74.447048 
1041.578412  	74.280112 
1042.542837  	74.126428 
1043.507261  	74.077521 
1044.471686  	73.969472 
1045.436110  	73.818405 
1046.400535  	73.819331 
1047.364959  	73.910161 
1048.329384  	73.886235 
1049.293808  	73.817231 
1050.258233  	73.821308 
1051.222657  	73.892813 
1052.187081  	73.860512 
1053.151506  	73.722664 
1054.115930  	73.621529 
1055.080355  	73.523891 
1056.044779  	73.355998 
1057.009204  	73.088565 
1057.973628  	72.823691 
1058.938053  	72.574955 
1059.902477  	72.211600 
1060.866902  	71.797878 
1061.831326  	71.466951 
1062.795751  	71.071770 
1063.760175  	70.599917 
1064.724599  	70.088899 
1065.689024  	69.624462 
1066.653448  	69.176121 
1067.617873  	68.614290 
1068.582297  	68.004506 
1069.546722  	67.400418 
1070.511146  	66.752137 
1071.475571  	66.031861 
1072.439995  	65.294175 
1073.404420  	64.555266 
1074.368844  	63.764816 
1075.333268  	62.883010 
1076.297693  	61.993713 
1077.262117  	61.121936 
1078.226542  	60.302082 
1079.190966  	59.459519 
1080.155391  	58.614017 
1081.119815  	57.881132 
1082.084240  	57.240426 
1083.048664  	56.671973 
1084.013089  	56.228975 
1084.977513  	55.838151 
1085.941937  	55.390973 
1086.906362  	54.996095 
1087.870786  	54.690496 
1088.835211  	54.400725 
1089.799635  	54.067086 
1090.764060  	53.764842 
1091.728484  	53.552562 
1092.692909  	53.359240 
1093.657333  	53.182388 
1094.621758  	53.080771 
1095.586182  	53.128520 
1096.550606  	53.271577 
1097.515031  	53.460267 
1098.479455  	53.746476 
1099.443880  	54.142271 
1100.408304  	54.584183 
1101.372729  	55.101100 
1102.337153  	55.684153 
1103.301578  	56.339552 
1104.266002  	57.055178 
1105.230427  	57.768929 
1106.194851  	58.546202 
1107.159275  	59.370905 
1108.123700  	60.125123 
1109.088124  	60.770362 
1110.052549  	61.323572 
1111.016973  	61.710914 
1111.981398  	61.980722 
1112.945822  	62.152079 
1113.910247  	62.187879 
1114.874671  	62.126440 
1115.839096  	61.982657 
1116.803520  	61.851574 
1117.767945  	61.765879 
1118.732369  	61.816848 
1119.696793  	62.031902 
1120.661218  	62.315698 
1121.625642  	62.617317 
1122.590067  	63.057164 
1123.554491  	63.625086 
1124.518916  	64.228153 
1125.483340  	64.895167 
1126.447765  	65.674558 
1127.412189  	66.512279 
1128.376614  	67.390052 
1129.341038  	68.356946 
1130.305462  	69.410511 
1131.269887  	70.528201 
1132.234311  	71.624556 
1133.198736  	72.672961 
1134.163160  	73.771606 
1135.127585  	74.877089 
1136.092009  	75.926942 
1137.056434  	76.924308 
1138.020858  	77.914422 
1138.985283  	78.814363 
1139.949707  	79.574177 
1140.914131  	80.295396 
1141.878556  	81.017390 
1142.842980  	81.633034 
1143.807405  	82.214280 
1144.771829  	82.772764 
1145.736254  	83.253329 
1146.700678  	83.686692 
1147.665103  	84.070793 
1148.629527  	84.412996 
1149.593952  	84.736924 
1150.558376  	85.016590 
1151.522800  	85.237353 
1152.487225  	85.447111 
1153.451649  	85.636270 
1154.416074  	85.812082 
1155.380498  	85.897944 
1156.344923  	85.991964 
1157.309347  	86.118876 
1158.273772  	86.155479 
1159.238196  	86.098288 
1160.202621  	86.113944 
1161.167045  	86.141932 
1162.131469  	86.093281 
1163.095894  	86.008002 
1164.060318  	85.936352 
1165.024743  	85.837530 
1165.989167  	85.672096 
1166.953592  	85.457504 
1167.918016  	85.196467 
1168.882441  	84.860611 
1169.846865  	84.465153 
1170.811290  	84.058682 
1171.775714  	83.729178 
1172.740138  	83.532846 
1173.704563  	83.299488 
1174.668987  	83.062093 
1175.633412  	83.040237 
1176.597836  	83.118958 
1177.562261  	83.151777 
1178.526685  	83.182930 
1179.491110  	83.260407 
1180.455534  	83.321868 
1181.419959  	83.386328 
1182.384383  	83.399678 
1183.348808  	83.368899 
1184.313232  	83.327554 
1185.277656  	83.183910 
1186.242081  	82.975525 
1187.206505  	82.780213 
1188.170930  	82.573244 
1189.135354  	82.306376 
1190.099779  	82.034607 
1191.064203  	81.787122 
