##TITLE=No Description
##DATA TYPE=INFRARED SPECTRUM
##XUNITS=1/CM
##YUNITS=%T
400.236149  	157.651488 
401.200574  	116.023239 
402.164998  	74.645586 
403.129423  	73.874560 
404.093847  	84.161221 
405.058272  	86.415277 
406.022696  	97.855600 
406.987120  	99.618441 
407.951545  	98.430832 
408.915969  	89.920896 
409.880394  	83.229253 
410.844818  	81.959385 
411.809243  	90.596701 
412.773667  	94.281909 
413.738092  	87.327843 
414.702516  	78.973628 
415.666941  	76.922443 
416.631365  	84.047235 
417.595789  	90.623455 
418.560214  	95.167388 
419.524638  	90.700730 
420.489063  	86.040441 
421.453487  	85.419153 
422.417912  	85.226792 
423.382336  	83.926630 
424.346761  	80.920876 
425.311185  	77.894420 
426.275610  	78.510772 
427.240034  	79.098977 
428.204458  	80.529804 
429.168883  	82.007447 
430.133307  	82.194206 
431.097732  	80.468155 
432.062156  	77.374624 
433.026581  	75.771106 
433.991005  	76.594515 
434.955430  	77.058489 
435.919854  	76.252416 
436.884279  	76.327289 
437.848703  	77.729471 
438.813127  	77.961743 
439.777552  	78.540297 
440.741976  	79.427763 
441.706401  	81.715246 
442.670825  	81.304934 
443.635250  	81.493664 
444.599674  	83.307077 
445.564099  	82.253644 
446.528523  	81.570936 
447.492948  	81.084715 
448.457372  	81.846974 
449.421796  	82.424963 
450.386221  	82.869090 
451.350645  	82.617166 
452.315070  	81.526345 
453.279494  	81.756157 
454.243919  	82.858513 
455.208343  	82.658448 
456.172768  	81.737231 
457.137192  	81.416121 
458.101617  	81.982053 
459.066041  	82.469550 
460.030466  	82.346211 
460.994890  	82.102176 
461.959314  	82.341025 
462.923739  	82.743225 
463.888163  	82.604840 
464.852588  	82.117434 
465.817012  	82.529142 
466.781437  	82.917371 
467.745861  	81.611774 
468.710286  	80.633972 
469.674710  	80.840368 
470.639135  	80.424022 
471.603559  	79.849830 
472.567983  	79.874362 
473.532408  	81.115053 
474.496832  	81.020585 
475.461257  	81.296044 
476.425681  	80.873223 
477.390106  	80.786258 
478.354530  	81.114680 
479.318955  	80.885812 
480.283379  	80.638451 
481.247804  	80.956401 
482.212228  	80.660350 
483.176652  	80.946768 
484.141077  	81.468055 
485.105501  	81.203530 
486.069926  	80.443119 
487.034350  	80.439801 
487.998775  	80.460662 
488.963199  	80.741916 
489.927624  	81.108373 
490.892048  	80.459042 
491.856473  	79.693824 
492.820897  	80.262440 
493.785321  	80.151127 
494.749746  	79.336029 
495.714170  	78.729853 
496.678595  	78.365317 
497.643019  	78.205406 
498.607444  	77.854977 
499.571868  	77.593751 
500.536293  	77.417136 
501.500717  	76.581300 
502.465142  	76.017201 
503.429566  	76.642762 
504.393990  	76.833992 
505.358415  	76.796112 
506.322839  	76.634420 
507.287264  	76.775744 
508.251688  	78.177178 
509.216113  	79.500107 
510.180537  	80.105720 
511.144962  	80.845828 
512.109386  	81.556591 
513.073811  	81.328242 
514.038235  	81.075991 
515.002660  	81.022656 
515.967084  	80.645822 
516.931508  	80.257453 
517.895933  	81.170892 
518.860357  	81.170165 
519.824782  	80.480476 
520.789206  	80.952883 
521.753631  	81.385908 
522.718055  	81.674983 
523.682480  	81.593732 
524.646904  	81.399749 
525.611329  	80.989537 
526.575753  	80.910849 
527.540177  	81.578771 
528.504602  	82.008294 
529.469026  	82.111752 
530.433451  	82.038098 
531.397875  	81.890476 
532.362300  	82.259372 
533.326724  	82.494179 
534.291149  	82.348080 
535.255573  	82.593888 
536.219998  	82.625522 
537.184422  	82.721779 
538.148846  	82.553150 
539.113271  	82.714413 
540.077695  	82.900510 
541.042120  	83.417470 
542.006544  	83.478851 
542.970969  	83.455340 
543.935393  	83.411466 
544.899818  	83.298729 
545.864242  	83.123850 
546.828667  	83.335313 
547.793091  	83.293798 
548.757515  	83.297433 
549.721940  	83.375145 
550.686364  	83.453745 
551.650789  	83.684166 
552.615213  	83.306778 
553.579638  	83.345848 
554.544062  	83.520747 
555.508487  	83.578266 
556.472911  	83.447580 
557.437336  	83.327474 
558.401760  	83.409709 
559.366184  	83.451193 
560.330609  	83.114361 
561.295033  	83.040190 
562.259458  	83.284935 
563.223882  	83.098569 
564.188307  	82.952542 
565.152731  	83.193289 
566.117156  	83.186420 
567.081580  	82.985523 
568.046005  	83.009906 
569.010429  	82.912562 
569.974853  	82.996504 
570.939278  	82.958325 
571.903702  	82.975439 
572.868127  	83.093025 
573.832551  	83.041525 
574.796976  	82.874258 
575.761400  	82.388675 
576.725825  	82.601799 
577.690249  	82.784091 
578.654674  	82.793310 
579.619098  	82.795382 
580.583523  	82.421146 
581.547947  	82.717616 
582.512371  	83.081096 
583.476796  	82.899754 
584.441220  	82.642825 
585.405645  	82.652636 
586.370069  	83.122542 
587.334494  	83.261075 
588.298918  	83.032788 
589.263343  	82.739083 
590.227767  	82.766174 
591.192192  	82.347129 
592.156616  	81.911314 
593.121040  	82.535984 
594.085465  	82.820492 
595.049889  	82.659494 
596.014314  	82.549830 
596.978738  	82.675010 
597.943163  	82.748352 
598.907587  	82.481121 
599.872012  	82.037902 
600.836436  	82.175139 
601.800861  	82.558085 
602.765285  	82.595424 
603.729709  	82.395356 
604.694134  	82.230643 
605.658558  	82.328098 
606.622983  	82.517182 
607.587407  	82.277292 
608.551832  	82.072985 
609.516256  	82.217679 
610.480681  	82.170231 
611.445105  	82.026623 
612.409530  	82.232740 
613.373954  	82.291932 
614.338378  	82.018214 
615.302803  	81.760645 
616.267227  	81.604195 
617.231652  	81.769674 
618.196076  	81.967405 
619.160501  	81.824179 
620.124925  	81.501980 
621.089350  	81.361460 
622.053774  	81.361508 
623.018199  	81.705805 
623.982623  	81.542446 
624.947047  	81.100073 
625.911472  	80.724249 
626.875896  	80.839403 
627.840321  	80.888102 
628.804745  	80.824828 
629.769170  	80.345311 
630.733594  	79.785663 
631.698019  	79.580045 
632.662443  	79.749897 
633.626868  	80.088356 
634.591292  	80.474983 
635.555717  	80.509000 
636.520141  	80.956283 
637.484565  	81.075318 
638.448990  	80.955817 
639.413414  	80.680688 
640.377839  	80.542037 
641.342263  	80.569542 
642.306688  	80.487382 
643.271112  	80.448632 
644.235537  	80.415348 
645.199961  	80.389684 
646.164386  	80.560606 
647.128810  	80.561919 
648.093234  	80.346522 
649.057659  	80.165403 
650.022083  	80.121891 
650.986508  	80.235354 
651.950932  	80.212850 
652.915357  	79.964882 
653.879781  	79.780465 
654.844206  	79.692162 
655.808630  	79.605688 
656.773055  	79.444778 
657.737479  	79.433839 
658.701903  	79.211466 
659.666328  	79.017198 
660.630752  	78.962003 
661.595177  	78.905179 
662.559601  	78.811493 
663.524026  	78.653535 
664.488450  	78.548283 
665.452875  	78.383993 
666.417299  	78.384776 
667.381724  	78.711359 
668.346148  	78.754565 
669.310572  	77.889292 
670.274997  	77.517278 
671.239421  	77.357190 
672.203846  	77.262244 
673.168270  	77.131479 
674.132695  	76.802449 
675.097119  	76.516615 
676.061544  	76.267669 
677.025968  	76.009039 
677.990393  	75.629467 
678.954817  	75.372319 
679.919241  	75.273789 
680.883666  	75.219492 
681.848090  	75.170046 
682.812515  	75.142063 
683.776939  	75.006879 
684.741364  	74.843117 
685.705788  	74.554836 
686.670213  	74.307711 
687.634637  	73.955967 
688.599062  	73.636305 
689.563486  	73.291790 
690.527910  	72.960919 
691.492335  	72.569008 
692.456759  	72.225805 
693.421184  	71.722520 
694.385608  	71.102290 
695.350033  	70.527109 
696.314457  	69.796631 
697.278882  	68.818788 
698.243306  	67.850868 
699.207731  	66.921111 
700.172155  	66.039328 
701.136580  	65.137069 
702.101004  	64.394469 
703.065428  	63.649038 
704.029853  	62.853134 
704.994277  	61.952607 
705.958702  	61.213367 
706.923126  	60.374292 
707.887551  	59.345055 
708.851975  	58.253663 
709.816400  	57.148107 
710.780824  	55.953721 
711.745249  	54.633827 
712.709673  	53.188108 
713.674097  	51.682432 
714.638522  	50.153706 
715.602946  	48.463611 
716.567371  	46.690526 
717.531795  	44.919511 
718.496220  	43.204675 
719.460644  	41.815779 
720.425069  	40.641408 
721.389493  	39.820186 
722.353918  	39.346398 
723.318342  	39.377413 
724.282766  	40.334863 
725.247191  	42.269523 
726.211615  	44.804655 
727.176040  	47.681576 
728.140464  	50.628988 
729.104889  	53.491976 
730.069313  	56.355143 
731.033738  	59.317252 
731.998162  	62.267683 
732.962587  	65.379228 
733.927011  	68.381018 
734.891435  	71.331885 
735.855860  	74.267957 
736.820284  	77.128650 
737.784709  	79.751551 
738.749133  	81.968962 
739.713558  	83.722848 
740.677982  	85.158064 
741.642407  	86.294666 
742.606831  	87.173693 
743.571256  	87.659096 
744.535680  	87.861547 
745.500104  	88.056906 
746.464529  	88.183384 
747.428953  	88.161478 
748.393378  	88.181417 
749.357802  	88.124324 
750.322227  	88.032148 
751.286651  	87.891797 
752.251076  	87.814816 
753.215500  	87.710734 
754.179925  	87.531851 
755.144349  	87.431777 
756.108774  	87.391960 
757.073198  	87.268964 
758.037622  	87.080630 
759.002047  	86.876296 
759.966471  	86.779097 
760.930896  	86.594166 
761.895320  	86.435184 
762.859745  	86.424182 
763.824169  	86.343971 
764.788594  	86.133330 
765.753018  	85.934330 
766.717443  	85.769021 
767.681867  	85.583606 
768.646291  	85.352486 
769.610716  	85.222191 
770.575140  	85.035513 
771.539565  	84.868380 
772.503989  	84.540855 
773.468414  	84.361048 
774.432838  	84.276713 
775.397263  	84.179442 
776.361687  	84.004118 
777.326112  	83.894444 
778.290536  	83.813817 
779.254960  	83.738068 
780.219385  	83.397322 
781.183809  	83.326038 
782.148234  	83.027678 
783.112658  	82.880231 
784.077083  	82.568390 
785.041507  	82.231913 
786.005932  	82.062673 
786.970356  	81.653839 
787.934781  	81.177931 
788.899205  	80.806060 
789.863629  	80.470659 
790.828054  	80.159383 
791.792478  	79.816928 
792.756903  	79.609775 
793.721327  	79.850695 
794.685752  	80.316007 
795.650176  	80.948989 
796.614601  	81.570189 
797.579025  	82.102618 
798.543450  	82.232003 
799.507874  	82.230969 
800.472298  	82.325038 
801.436723  	82.324061 
802.401147  	82.179786 
803.365572  	82.075936 
804.329996  	82.056834 
805.294421  	82.063184 
806.258845  	81.964655 
807.223270  	81.929059 
808.187694  	81.923715 
809.152119  	81.888725 
810.116543  	81.880796 
811.080967  	81.758842 
812.045392  	81.697246 
813.009816  	81.726871 
813.974241  	81.653051 
814.938665  	81.645584 
815.903090  	81.702901 
816.867514  	81.688408 
817.831939  	81.593769 
818.796363  	81.481569 
819.760788  	81.445081 
820.725212  	81.440280 
821.689637  	81.276240 
822.654061  	81.081309 
823.618485  	81.009512 
824.582910  	80.924815 
825.547334  	80.664790 
826.511759  	80.452066 
827.476183  	80.294655 
828.440608  	80.102675 
829.405032  	79.875154 
830.369457  	79.700437 
831.333881  	79.536770 
832.298306  	79.353938 
833.262730  	79.002880 
834.227154  	78.690367 
835.191579  	78.407091 
836.156003  	78.055133 
837.120428  	77.681345 
838.084852  	77.340084 
839.049277  	77.069258 
840.013701  	76.676198 
840.978126  	76.164074 
841.942550  	75.827098 
842.906975  	75.479544 
843.871399  	75.015303 
844.835823  	74.600809 
845.800248  	74.413178 
846.764672  	74.426693 
847.729097  	74.590754 
848.693521  	74.818241 
849.657946  	75.223133 
850.622370  	75.752613 
851.586795  	76.123939 
852.551219  	76.260476 
853.515644  	76.479911 
854.480068  	76.762412 
855.444492  	76.877909 
856.408917  	76.915702 
857.373341  	77.060378 
858.337766  	77.211833 
859.302190  	77.273176 
860.266615  	77.341052 
861.231039  	77.361579 
862.195464  	77.213006 
863.159888  	76.885038 
864.124313  	76.477013 
865.088737  	75.964291 
866.053161  	75.213808 
867.017586  	74.121129 
867.982010  	72.773202 
868.946435  	71.091142 
869.910859  	68.990473 
870.875284  	66.807400 
871.839708  	65.726164 
872.804133  	66.596328 
873.768557  	68.852717 
874.732982  	71.247326 
875.697406  	73.167191 
876.661831  	74.590958 
877.626255  	75.695927 
878.590679  	76.717896 
879.555104  	77.669243 
880.519528  	78.504371 
881.483953  	79.150338 
882.448377  	79.747659 
883.412802  	80.301306 
884.377226  	80.746769 
885.341651  	81.132078 
886.306075  	81.325735 
887.270500  	81.397237 
888.234924  	81.503776 
889.199348  	81.481289 
890.163773  	81.449231 
891.128197  	81.470037 
892.092622  	81.450991 
893.057046  	81.318179 
894.021471  	81.167793 
894.985895  	81.141361 
895.950320  	81.052236 
896.914744  	80.934012 
897.879169  	80.867056 
898.843593  	80.869626 
899.808017  	80.884820 
900.772442  	80.948788 
901.736866  	81.052395 
902.701291  	81.243703 
903.665715  	81.412200 
904.630140  	81.502246 
905.594564  	81.586689 
906.558989  	81.740420 
907.523413  	81.952281 
908.487838  	82.058704 
909.452262  	82.102580 
910.416686  	82.196512 
911.381111  	82.279827 
912.345535  	82.289504 
913.309960  	82.278882 
914.274384  	82.256135 
915.238809  	82.252038 
916.203233  	82.215040 
917.167658  	82.187132 
918.132082  	82.157872 
919.096507  	82.173572 
920.060931  	82.104364 
921.025355  	82.010853 
921.989780  	81.935883 
922.954204  	81.840615 
923.918629  	81.725863 
924.883053  	81.670849 
925.847478  	81.599996 
926.811902  	81.481690 
927.776327  	81.365412 
928.740751  	81.272721 
929.705176  	81.212095 
930.669600  	81.131544 
931.634024  	81.032356 
932.598449  	80.949588 
933.562873  	80.854883 
934.527298  	80.766065 
935.491722  	80.644407 
936.456147  	80.524243 
937.420571  	80.427180 
938.384996  	80.303428 
939.349420  	80.144161 
940.313845  	80.047130 
941.278269  	79.961115 
942.242694  	79.849610 
943.207118  	79.697748 
944.171542  	79.565651 
945.135967  	79.423165 
946.100391  	79.250444 
947.064816  	79.059691 
948.029240  	78.910029 
948.993665  	78.797356 
949.958089  	78.618867 
950.922514  	78.417847 
951.886938  	78.293373 
952.851363  	78.113218 
953.815787  	77.850745 
954.780211  	77.600553 
955.744636  	77.429266 
956.709060  	77.233318 
957.673485  	76.971204 
958.637909  	76.674252 
959.602334  	76.351656 
960.566758  	76.035286 
961.531183  	75.706613 
962.495607  	75.395793 
963.460032  	75.122563 
964.424456  	74.839980 
965.388880  	74.503602 
966.353305  	74.189697 
967.317729  	73.994861 
968.282154  	73.847416 
969.246578  	73.690208 
970.211003  	73.631182 
971.175427  	73.728660 
972.139852  	73.916408 
973.104276  	74.173436 
974.068701  	74.527739 
975.033125  	74.917410 
975.997549  	75.286046 
976.961974  	75.647950 
977.926398  	76.026353 
978.890823  	76.334820 
979.855247  	76.534458 
980.819672  	76.673996 
981.784096  	76.833468 
982.748521  	76.947593 
983.712945  	76.949584 
984.677370  	76.849507 
985.641794  	76.762022 
986.606218  	76.700133 
987.570643  	76.617969 
988.535067  	76.509402 
989.499492  	76.446229 
990.463916  	76.436902 
991.428341  	76.392648 
992.392765  	76.254604 
993.357190  	76.073271 
994.321614  	75.919492 
995.286039  	75.749149 
996.250463  	75.549368 
997.214888  	75.344258 
998.179312  	75.107083 
999.143736  	74.820890 
1000.108161  	74.506291 
1001.072585  	74.172001 
1002.037010  	73.847299 
1003.001434  	73.485697 
1003.965859  	73.053711 
1004.930283  	72.567200 
1005.894708  	72.029321 
1006.859132  	71.362309 
1007.823557  	70.575861 
1008.787981  	69.754500 
1009.752405  	68.802400 
1010.716830  	67.639743 
1011.681254  	66.304264 
1012.645679  	64.766745 
1013.610103  	63.029043 
1014.574528  	61.290707 
1015.538952  	59.904735 
1016.503377  	59.193500 
1017.467801  	59.338357 
1018.432226  	60.223586 
1019.396650  	61.677127 
1020.361074  	63.430308 
1021.325499  	65.213711 
1022.289923  	66.827134 
1023.254348  	68.447344 
1024.218772  	70.267376 
1025.183197  	72.271142 
1026.147621  	74.103067 
1027.112046  	75.398445 
1028.076470  	76.077095 
1029.040895  	76.253906 
1030.005319  	76.134328 
1030.969743  	75.886454 
1031.934168  	75.605941 
1032.898592  	75.311022 
1033.863017  	74.918937 
1034.827441  	74.482202 
1035.791866  	74.124121 
1036.756290  	73.782664 
1037.720715  	73.472337 
1038.685139  	73.200825 
1039.649564  	72.944336 
1040.613988  	72.743835 
1041.578412  	72.532276 
1042.542837  	72.322186 
1043.507261  	72.192117 
1044.471686  	72.117045 
1045.436110  	72.025428 
1046.400535  	72.000737 
1047.364959  	72.013617 
1048.329384  	71.959332 
1049.293808  	71.921408 
1050.258233  	71.938331 
1051.222657  	71.951451 
1052.187081  	71.878642 
1053.151506  	71.771496 
1054.115930  	71.676337 
1055.080355  	71.518360 
1056.044779  	71.294113 
1057.009204  	71.023481 
1057.973628  	70.786735 
1058.938053  	70.497099 
1059.902477  	70.086674 
1060.866902  	69.645620 
1061.831326  	69.276925 
1062.795751  	68.843504 
1063.760175  	68.292037 
1064.724599  	67.740523 
1065.689024  	67.244912 
1066.653448  	66.721149 
1067.617873  	66.142519 
1068.582297  	65.524669 
1069.546722  	64.861231 
1070.511146  	64.167423 
1071.475571  	63.425391 
1072.439995  	62.674988 
1073.404420  	61.906511 
1074.368844  	61.029001 
1075.333268  	60.089229 
1076.297693  	59.133995 
1077.262117  	58.187585 
1078.226542  	57.319758 
1079.190966  	56.443033 
1080.155391  	55.530082 
1081.119815  	54.736071 
1082.084240  	54.077268 
1083.048664  	53.493936 
1084.013089  	53.005305 
1084.977513  	52.584655 
1085.941937  	52.155012 
1086.906362  	51.763593 
1087.870786  	51.435208 
1088.835211  	51.105461 
1089.799635  	50.786363 
1090.764060  	50.485086 
1091.728484  	50.250751 
1092.692909  	50.110587 
1093.657333  	49.967373 
1094.621758  	49.899980 
1095.586182  	49.979963 
1096.550606  	50.095643 
1097.515031  	50.244460 
1098.479455  	50.551562 
1099.443880  	50.980811 
1100.408304  	51.471073 
1101.372729  	52.030436 
1102.337153  	52.711297 
1103.301578  	53.439300 
1104.266002  	54.200562 
1105.230427  	55.033506 
1106.194851  	55.892136 
1107.159275  	56.686207 
1108.123700  	57.443845 
1109.088124  	58.157124 
1110.052549  	58.741923 
1111.016973  	59.164912 
1111.981398  	59.444065 
1112.945822  	59.582452 
1113.910247  	59.617413 
1114.874671  	59.519759 
1115.839096  	59.350880 
1116.803520  	59.241326 
1117.767945  	59.191507 
1118.732369  	59.282020 
1119.696793  	59.527274 
1120.661218  	59.834084 
1121.625642  	60.239074 
1122.590067  	60.777756 
1123.554491  	61.388337 
1124.518916  	62.055080 
1125.483340  	62.810145 
1126.447765  	63.655816 
1127.412189  	64.596179 
1128.376614  	65.585189 
1129.341038  	66.620115 
1130.305462  	67.733244 
1131.269887  	68.935056 
1132.234311  	70.093011 
1133.198736  	71.237926 
1134.163160  	72.401742 
1135.127585  	73.538529 
1136.092009  	74.627755 
1137.056434  	75.706911 
1138.020858  	76.736322 
1138.985283  	77.627646 
1139.949707  	78.439253 
1140.914131  	79.243986 
1141.878556  	79.992007 
1142.842980  	80.624233 
1143.807405  	81.223321 
1144.771829  	81.824057 
1145.736254  	82.320818 
1146.700678  	82.736974 
1147.665103  	83.151905 
1148.629527  	83.520206 
1149.593952  	83.832057 
1150.558376  	84.120630 
1151.522800  	84.363918 
1152.487225  	84.568282 
1153.451649  	84.752125 
1154.416074  	84.914470 
1155.380498  	85.029102 
1156.344923  	85.150494 
1157.309347  	85.259263 
1158.273772  	85.306912 
1159.238196  	85.274331 
1160.202621  	85.293081 
1161.167045  	85.315271 
1162.131469  	85.245583 
1163.095894  	85.141016 
1164.060318  	85.039586 
1165.024743  	84.930159 
1165.989167  	84.736323 
1166.953592  	84.439383 
1167.918016  	84.127224 
1168.882441  	83.771997 
1169.846865  	83.334811 
1170.811290  	82.911410 
1171.775714  	82.567874 
1172.740138  	82.283633 
1173.704563  	82.030062 
1174.668987  	81.837623 
1175.633412  	81.814971 
1176.597836  	81.858373 
1177.562261  	81.893125 
1178.526685  	81.935930 
1179.491110  	82.026350 
1180.455534  	82.074418 
1181.419959  	82.116818 
1182.384383  	82.134451 
1183.348808  	82.082205 
1184.313232  	81.991628 
1185.277656  	81.857206 
1186.242081  	81.637597 
1187.206505  	81.409806 
1188.170930  	81.198310 
1189.135354  	80.902988 
1190.099779  	80.567038 
1191.064203  	80.242318 
