##TITLE=No Description
##DATA TYPE=INFRARED SPECTRUM
##XUNITS=1/CM
##YUNITS=%T
400.236149  	138.087850 
401.200574  	118.246141 
402.164998  	94.825466 
403.129423  	82.995139 
404.093847  	86.229063 
405.058272  	89.753879 
406.022696  	84.203339 
406.987120  	79.296687 
407.951545  	89.599679 
408.915969  	91.843191 
409.880394  	88.197078 
410.844818  	90.923941 
411.809243  	99.737861 
412.773667  	98.920248 
413.738092  	89.018503 
414.702516  	82.275451 
415.666941  	82.789812 
416.631365  	87.868957 
417.595789  	97.579136 
418.560214  	103.980579 
419.524638  	89.755362 
420.489063  	80.821998 
421.453487  	84.159055 
422.417912  	86.369000 
423.382336  	83.770889 
424.346761  	82.028101 
425.311185  	80.980266 
426.275610  	80.835822 
427.240034  	81.383471 
428.204458  	80.343080 
429.168883  	80.081733 
430.133307  	81.362690 
431.097732  	80.274998 
432.062156  	77.249910 
433.026581  	76.640259 
433.991005  	78.218954 
434.955430  	78.674787 
435.919854  	79.158723 
436.884279  	78.725719 
437.848703  	78.260463 
438.813127  	79.912956 
439.777552  	81.284071 
440.741976  	81.821632 
441.706401  	82.214893 
442.670825  	81.980597 
443.635250  	82.618416 
444.599674  	84.388920 
445.564099  	85.055195 
446.528523  	84.793709 
447.492948  	84.737299 
448.457372  	85.389033 
449.421796  	84.626698 
450.386221  	84.398238 
451.350645  	85.030850 
452.315070  	84.102749 
453.279494  	83.253259 
454.243919  	84.394764 
455.208343  	84.618177 
456.172768  	83.619570 
457.137192  	83.687086 
458.101617  	84.737314 
459.066041  	85.107162 
460.030466  	84.657991 
460.994890  	84.404135 
461.959314  	84.557070 
462.923739  	83.285829 
463.888163  	81.985550 
464.852588  	82.116664 
465.817012  	83.579790 
466.781437  	83.556855 
467.745861  	82.437156 
468.710286  	82.514819 
469.674710  	82.193019 
470.639135  	82.074736 
471.603559  	82.111167 
472.567983  	82.435741 
473.532408  	83.498769 
474.496832  	83.030346 
475.461257  	82.292730 
476.425681  	81.873809 
477.390106  	83.199637 
478.354530  	84.105960 
479.318955  	83.578361 
480.283379  	82.307844 
481.247804  	82.083242 
482.212228  	81.894226 
483.176652  	82.185653 
484.141077  	82.850248 
485.105501  	82.318600 
486.069926  	81.565707 
487.034350  	82.151707 
487.998775  	82.309099 
488.963199  	82.127717 
489.927624  	82.569754 
490.892048  	81.979760 
491.856473  	80.999544 
492.820897  	81.604541 
493.785321  	81.413075 
494.749746  	80.791402 
495.714170  	81.165381 
496.678595  	81.017889 
497.643019  	80.620059 
498.607444  	80.484507 
499.571868  	79.598045 
500.536293  	79.060853 
501.500717  	78.539182 
502.465142  	78.293749 
503.429566  	79.017336 
504.393990  	78.794539 
505.358415  	78.556370 
506.322839  	78.448638 
507.287264  	79.134149 
508.251688  	80.605953 
509.216113  	81.621368 
510.180537  	82.080659 
511.144962  	82.494988 
512.109386  	82.685557 
513.073811  	82.905365 
514.038235  	83.026711 
515.002660  	82.755517 
515.967084  	82.285303 
516.931508  	82.012331 
517.895933  	82.378767 
518.860357  	82.397503 
519.824782  	82.058956 
520.789206  	82.358321 
521.753631  	82.742274 
522.718055  	82.999788 
523.682480  	83.005272 
524.646904  	82.700490 
525.611329  	82.175455 
526.575753  	82.072686 
527.540177  	82.707875 
528.504602  	83.221473 
529.469026  	83.222946 
530.433451  	83.118463 
531.397875  	83.287895 
532.362300  	83.575667 
533.326724  	84.121168 
534.291149  	84.064207 
535.255573  	83.519626 
536.219998  	83.533844 
537.184422  	84.083485 
538.148846  	84.245776 
539.113271  	84.213736 
540.077695  	83.705688 
541.042120  	83.740994 
542.006544  	84.055303 
542.970969  	84.296594 
543.935393  	84.298955 
544.899818  	84.150840 
545.864242  	84.179281 
546.828667  	84.244064 
547.793091  	84.023968 
548.757515  	84.044397 
549.721940  	84.449054 
550.686364  	84.448986 
551.650789  	84.542219 
552.615213  	84.231871 
553.579638  	84.256759 
554.544062  	84.440507 
555.508487  	84.510565 
556.472911  	84.204518 
557.437336  	83.951374 
558.401760  	84.128428 
559.366184  	84.269008 
560.330609  	84.008508 
561.295033  	83.903482 
562.259458  	84.041987 
563.223882  	83.704670 
564.188307  	83.550429 
565.152731  	84.049047 
566.117156  	84.218966 
567.081580  	83.742959 
568.046005  	83.640890 
569.010429  	83.613566 
569.974853  	83.859856 
570.939278  	84.020395 
571.903702  	83.764712 
572.868127  	83.664672 
573.832551  	83.578190 
574.796976  	83.448227 
575.761400  	82.912413 
576.725825  	83.096873 
577.690249  	83.475889 
578.654674  	83.529550 
579.619098  	83.357729 
580.583523  	83.051127 
581.547947  	83.300956 
582.512371  	83.729726 
583.476796  	83.612911 
584.441220  	83.193830 
585.405645  	83.229645 
586.370069  	83.636193 
587.334494  	83.741449 
588.298918  	83.641341 
589.263343  	83.487333 
590.227767  	83.656426 
591.192192  	83.298980 
592.156616  	82.807397 
593.121040  	83.021234 
594.085465  	83.294439 
595.049889  	83.406717 
596.014314  	83.405356 
596.978738  	83.398038 
597.943163  	83.292871 
598.907587  	83.053627 
599.872012  	82.779767 
600.836436  	82.882239 
601.800861  	83.146219 
602.765285  	83.155076 
603.729709  	83.206163 
604.694134  	83.218483 
605.658558  	83.104579 
606.622983  	83.076881 
607.587407  	82.847543 
608.551832  	82.792509 
609.516256  	82.983258 
610.480681  	82.964674 
611.445105  	82.933578 
612.409530  	83.059717 
613.373954  	83.020248 
614.338378  	82.686196 
615.302803  	82.357716 
616.267227  	82.429705 
617.231652  	82.773772 
618.196076  	82.607877 
619.160501  	82.432949 
620.124925  	82.250219 
621.089350  	82.209036 
622.053774  	82.178260 
623.018199  	82.467802 
623.982623  	82.311907 
624.947047  	82.040966 
625.911472  	81.928893 
626.875896  	81.985043 
627.840321  	81.836004 
628.804745  	81.849140 
629.769170  	81.570458 
630.733594  	81.095426 
631.698019  	80.910700 
632.662443  	81.091305 
633.626868  	81.367219 
634.591292  	81.578093 
635.555717  	81.553329 
636.520141  	81.720413 
637.484565  	81.761317 
638.448990  	81.791352 
639.413414  	81.714946 
640.377839  	81.696469 
641.342263  	81.663380 
642.306688  	81.498781 
643.271112  	81.438849 
644.235537  	81.507929 
645.199961  	81.501473 
646.164386  	81.535352 
647.128810  	81.470106 
648.093234  	81.337509 
649.057659  	81.192354 
650.022083  	81.186697 
650.986508  	81.256952 
651.950932  	81.167811 
652.915357  	80.947469 
653.879781  	80.900161 
654.844206  	80.897154 
655.808630  	80.731761 
656.773055  	80.639374 
657.737479  	80.670732 
658.701903  	80.463145 
659.666328  	80.321004 
660.630752  	80.389954 
661.595177  	80.377694 
662.559601  	80.188079 
663.524026  	80.058014 
664.488450  	80.075178 
665.452875  	79.970201 
666.417299  	79.864157 
667.381724  	80.002794 
668.346148  	79.287660 
669.310572  	78.871672 
670.274997  	79.092043 
671.239421  	79.178642 
672.203846  	79.134812 
673.168270  	78.972883 
674.132695  	78.591721 
675.097119  	78.348873 
676.061544  	78.117929 
677.025968  	77.977229 
677.990393  	77.821865 
678.954817  	77.653992 
679.919241  	77.593973 
680.883666  	77.521399 
681.848090  	77.427209 
682.812515  	77.347546 
683.776939  	77.232649 
684.741364  	77.173989 
685.705788  	77.012829 
686.670213  	76.878295 
687.634637  	76.656134 
688.599062  	76.398581 
689.563486  	76.099122 
690.527910  	75.773367 
691.492335  	75.464582 
692.456759  	75.121137 
693.421184  	74.646633 
694.385608  	74.323644 
695.350033  	73.922314 
696.314457  	73.271661 
697.278882  	72.602639 
698.243306  	72.002044 
699.207731  	71.432718 
700.172155  	70.958291 
701.136580  	70.265073 
702.101004  	69.614447 
703.065428  	69.076355 
704.029853  	68.556587 
704.994277  	67.976889 
705.958702  	67.398680 
706.923126  	66.743724 
707.887551  	66.019031 
708.851975  	65.343006 
709.816400  	64.556038 
710.780824  	63.636844 
711.745249  	62.636453 
712.709673  	61.542405 
713.674097  	60.349154 
714.638522  	59.098893 
715.602946  	57.716634 
716.567371  	56.229467 
717.531795  	54.769876 
718.496220  	53.226960 
719.460644  	51.768945 
720.425069  	50.511349 
721.389493  	49.563518 
722.353918  	48.903077 
723.318342  	48.690529 
724.282766  	49.302468 
725.247191  	50.845891 
726.211615  	52.926621 
727.176040  	55.364860 
728.140464  	57.857072 
729.104889  	60.406539 
730.069313  	62.963791 
731.033738  	65.473664 
731.998162  	67.957361 
732.962587  	70.536316 
733.927011  	73.177785 
734.891435  	75.703169 
735.855860  	78.114655 
736.820284  	80.432401 
737.784709  	82.459881 
738.749133  	84.246481 
739.713558  	85.743195 
740.677982  	86.879970 
741.642407  	87.620034 
742.606831  	88.169354 
743.571256  	88.523647 
744.535680  	88.699022 
745.500104  	88.825971 
746.464529  	88.846083 
747.428953  	88.766268 
748.393378  	88.676464 
749.357802  	88.484209 
750.322227  	88.316414 
751.286651  	88.167969 
752.251076  	88.091450 
753.215500  	88.043032 
754.179925  	87.892617 
755.144349  	87.733996 
756.108774  	87.746752 
757.073198  	87.686804 
758.037622  	87.504348 
759.002047  	87.206433 
759.966471  	87.023835 
760.930896  	86.830416 
761.895320  	86.719889 
762.859745  	86.704399 
763.824169  	86.625028 
764.788594  	86.373997 
765.753018  	86.120909 
766.717443  	85.990802 
767.681867  	85.814876 
768.646291  	85.521234 
769.610716  	85.443046 
770.575140  	85.352435 
771.539565  	85.211026 
772.503989  	85.037744 
773.468414  	84.990202 
774.432838  	84.912319 
775.397263  	84.796871 
776.361687  	84.646210 
777.326112  	84.496895 
778.290536  	84.351064 
779.254960  	84.271370 
780.219385  	84.156156 
781.183809  	84.057836 
782.148234  	83.667276 
783.112658  	83.312713 
784.077083  	83.218911 
785.041507  	83.204973 
786.005932  	83.027809 
786.970356  	82.566958 
787.934781  	82.188812 
788.899205  	82.016898 
789.863629  	81.905171 
790.828054  	81.689464 
791.792478  	81.404826 
792.756903  	81.256810 
793.721327  	81.418944 
794.685752  	81.693842 
795.650176  	82.243307 
796.614601  	82.822212 
797.579025  	83.198613 
798.543450  	83.255192 
799.507874  	83.178148 
800.472298  	83.260088 
801.436723  	83.311164 
802.401147  	83.206875 
803.365572  	83.113105 
804.329996  	83.082538 
805.294421  	83.065533 
806.258845  	83.051066 
807.223270  	82.983193 
808.187694  	82.916109 
809.152119  	82.934059 
810.116543  	82.880222 
811.080967  	82.768368 
812.045392  	82.740402 
813.009816  	82.794588 
813.974241  	82.780654 
814.938665  	82.728196 
815.903090  	82.758161 
816.867514  	82.702876 
817.831939  	82.612849 
818.796363  	82.626204 
819.760788  	82.578478 
820.725212  	82.442149 
821.689637  	82.316957 
822.654061  	82.224342 
823.618485  	82.114804 
824.582910  	82.056870 
825.547334  	81.827163 
826.511759  	81.654569 
827.476183  	81.598939 
828.440608  	81.493775 
829.405032  	81.379903 
830.369457  	81.232291 
831.333881  	81.057946 
832.298306  	80.900588 
833.262730  	80.649866 
834.227154  	80.436015 
835.191579  	80.213553 
836.156003  	79.940025 
837.120428  	79.587858 
838.084852  	79.262578 
839.049277  	79.045566 
840.013701  	78.836761 
840.978126  	78.469402 
841.942550  	78.185487 
842.906975  	77.934324 
843.871399  	77.623813 
844.835823  	77.345647 
845.800248  	77.224355 
846.764672  	77.235845 
847.729097  	77.353900 
848.693521  	77.511673 
849.657946  	77.804773 
850.622370  	78.222593 
851.586795  	78.639583 
852.551219  	78.754653 
853.515644  	78.897061 
854.480068  	79.072498 
855.444492  	79.194590 
856.408917  	79.276482 
857.373341  	79.384111 
858.337766  	79.546234 
859.302190  	79.617231 
860.266615  	79.621811 
861.231039  	79.585556 
862.195464  	79.409763 
863.159888  	79.149542 
864.124313  	78.914416 
865.088737  	78.531170 
866.053161  	77.958551 
867.017586  	77.179304 
867.982010  	76.180080 
868.946435  	74.904994 
869.910859  	73.328192 
870.875284  	71.738479 
871.839708  	70.946398 
872.804133  	71.724302 
873.768557  	73.628442 
874.732982  	75.509099 
875.697406  	76.990580 
876.661831  	78.057575 
877.626255  	78.906700 
878.590679  	79.661582 
879.555104  	80.318669 
880.519528  	80.872090 
881.483953  	81.311105 
882.448377  	81.652889 
883.412802  	82.007707 
884.377226  	82.336340 
885.341651  	82.572741 
886.306075  	82.663944 
887.270500  	82.740936 
888.234924  	82.856775 
889.199348  	82.823444 
890.163773  	82.712314 
891.128197  	82.676867 
892.092622  	82.670924 
893.057046  	82.552101 
894.021471  	82.420891 
894.985895  	82.396373 
895.950320  	82.317319 
896.914744  	82.247798 
897.879169  	82.190341 
898.843593  	82.167408 
899.808017  	82.200640 
900.772442  	82.266845 
901.736866  	82.338306 
902.701291  	82.458520 
903.665715  	82.587871 
904.630140  	82.678567 
905.594564  	82.672584 
906.558989  	82.746915 
907.523413  	82.902292 
908.487838  	82.979987 
909.452262  	83.063963 
910.416686  	83.186353 
911.381111  	83.230888 
912.345535  	83.200403 
913.309960  	83.145070 
914.274384  	83.111738 
915.238809  	83.100586 
916.203233  	83.021831 
917.167658  	82.975024 
918.132082  	82.960210 
919.096507  	82.932725 
920.060931  	82.888122 
921.025355  	82.825658 
921.989780  	82.734530 
922.954204  	82.654902 
923.918629  	82.556914 
924.883053  	82.459074 
925.847478  	82.370663 
926.811902  	82.279779 
927.776327  	82.242136 
928.740751  	82.167951 
929.705176  	82.083905 
930.669600  	82.000343 
931.634024  	81.912985 
932.598449  	81.820684 
933.562873  	81.752495 
934.527298  	81.671524 
935.491722  	81.520106 
936.456147  	81.406587 
937.420571  	81.381175 
938.384996  	81.309126 
939.349420  	81.143856 
940.313845  	81.006460 
941.278269  	80.946956 
942.242694  	80.877067 
943.207118  	80.744529 
944.171542  	80.637402 
945.135967  	80.545950 
946.100391  	80.391681 
947.064816  	80.209085 
948.029240  	80.071835 
948.993665  	79.952806 
949.958089  	79.803850 
950.922514  	79.639424 
951.886938  	79.513455 
952.851363  	79.338374 
953.815787  	79.127011 
954.780211  	78.963798 
955.744636  	78.826729 
956.709060  	78.676621 
957.673485  	78.459605 
958.637909  	78.188962 
959.602334  	77.929587 
960.566758  	77.701850 
961.531183  	77.469663 
962.495607  	77.234740 
963.460032  	76.997288 
964.424456  	76.759982 
965.388880  	76.465384 
966.353305  	76.221760 
967.317729  	76.107035 
968.282154  	75.995859 
969.246578  	75.914121 
970.211003  	75.942326 
971.175427  	76.054257 
972.139852  	76.218924 
973.104276  	76.460711 
974.068701  	76.783684 
975.033125  	77.154099 
975.997549  	77.477524 
976.961974  	77.764959 
977.926398  	78.048378 
978.890823  	78.266335 
979.855247  	78.408780 
980.819672  	78.526063 
981.784096  	78.641936 
982.748521  	78.711272 
983.712945  	78.691075 
984.677370  	78.592573 
985.641794  	78.524290 
986.606218  	78.447206 
987.570643  	78.335309 
988.535067  	78.256936 
989.499492  	78.219695 
990.463916  	78.155876 
991.428341  	78.050067 
992.392765  	77.907612 
993.357190  	77.761368 
994.321614  	77.627271 
995.286039  	77.481919 
996.250463  	77.307896 
997.214888  	77.072560 
998.179312  	76.848876 
999.143736  	76.610400 
1000.108161  	76.335963 
1001.072585  	76.047761 
1002.037010  	75.740317 
1003.001434  	75.415726 
1003.965859  	75.098571 
1004.930283  	74.700590 
1005.894708  	74.191642 
1006.859132  	73.631649 
1007.823557  	72.994706 
1008.787981  	72.289843 
1009.752405  	71.491169 
1010.716830  	70.572423 
1011.681254  	69.515166 
1012.645679  	68.296246 
1013.610103  	66.992671 
1014.574528  	65.726083 
1015.538952  	64.783568 
1016.503377  	64.427540 
1017.467801  	64.725276 
1018.432226  	65.608526 
1019.396650  	66.873305 
1020.361074  	68.286578 
1021.325499  	69.731880 
1022.289923  	71.076823 
1023.254348  	72.486310 
1024.218772  	74.118291 
1025.183197  	75.845834 
1026.147621  	77.351402 
1027.112046  	78.410591 
1028.076470  	78.893732 
1029.040895  	78.925185 
1030.005319  	78.769093 
1030.969743  	78.525365 
1031.934168  	78.233583 
1032.898592  	77.946065 
1033.863017  	77.620414 
1034.827441  	77.212903 
1035.791866  	76.797121 
1036.756290  	76.498116 
1037.720715  	76.288687 
1038.685139  	76.046993 
1039.649564  	75.834305 
1040.613988  	75.666230 
1041.578412  	75.477970 
1042.542837  	75.278765 
1043.507261  	75.183838 
1044.471686  	75.143383 
1045.436110  	75.084618 
1046.400535  	75.029709 
1047.364959  	74.975221 
1048.329384  	74.924426 
1049.293808  	74.917289 
1050.258233  	74.907812 
1051.222657  	74.882693 
1052.187081  	74.805404 
1053.151506  	74.661324 
1054.115930  	74.539790 
1055.080355  	74.415883 
1056.044779  	74.208180 
1057.009204  	73.982222 
1057.973628  	73.732610 
1058.938053  	73.465624 
1059.902477  	73.129760 
1060.866902  	72.739878 
1061.831326  	72.388371 
1062.795751  	72.047259 
1063.760175  	71.636679 
1064.724599  	71.200514 
1065.689024  	70.775219 
1066.653448  	70.348539 
1067.617873  	69.848554 
1068.582297  	69.329590 
1069.546722  	68.827751 
1070.511146  	68.287339 
1071.475571  	67.690328 
1072.439995  	67.067792 
1073.404420  	66.481299 
1074.368844  	65.843089 
1075.333268  	65.129527 
1076.297693  	64.362840 
1077.262117  	63.623389 
1078.226542  	62.973264 
1079.190966  	62.325403 
1080.155391  	61.654569 
1081.119815  	61.082195 
1082.084240  	60.596738 
1083.048664  	60.152199 
1084.013089  	59.789097 
1084.977513  	59.459671 
1085.941937  	59.106825 
1086.906362  	58.777030 
1087.870786  	58.552242 
1088.835211  	58.366734 
1089.799635  	58.109137 
1090.764060  	57.860635 
1091.728484  	57.716193 
1092.692909  	57.597673 
1093.657333  	57.479850 
1094.621758  	57.412370 
1095.586182  	57.465855 
1096.550606  	57.610740 
1097.515031  	57.836348 
1098.479455  	58.103638 
1099.443880  	58.463133 
1100.408304  	58.924732 
1101.372729  	59.408472 
1102.337153  	59.953563 
1103.301578  	60.568645 
1104.266002  	61.218316 
1105.230427  	61.885852 
1106.194851  	62.580360 
1107.159275  	63.262815 
1108.123700  	63.863310 
1109.088124  	64.431387 
1110.052549  	64.928410 
1111.016973  	65.317441 
1111.981398  	65.573280 
1112.945822  	65.726777 
1113.910247  	65.779698 
1114.874671  	65.707904 
1115.839096  	65.563803 
1116.803520  	65.431457 
1117.767945  	65.374648 
1118.732369  	65.457536 
1119.696793  	65.631014 
1120.661218  	65.885810 
1121.625642  	66.238992 
1122.590067  	66.684371 
1123.554491  	67.238496 
1124.518916  	67.855670 
1125.483340  	68.549271 
1126.447765  	69.286154 
1127.412189  	70.089802 
1128.376614  	70.939249 
1129.341038  	71.839831 
1130.305462  	72.780364 
1131.269887  	73.747834 
1132.234311  	74.746119 
1133.198736  	75.747628 
1134.163160  	76.717499 
1135.127585  	77.666270 
1136.092009  	78.559329 
1137.056434  	79.435417 
1138.020858  	80.296656 
1138.985283  	81.037717 
1139.949707  	81.689217 
1140.914131  	82.330322 
1141.878556  	82.895063 
1142.842980  	83.383374 
1143.807405  	83.859745 
1144.771829  	84.336533 
1145.736254  	84.746870 
1146.700678  	85.093823 
1147.665103  	85.373284 
1148.629527  	85.629462 
1149.593952  	85.859985 
1150.558376  	86.069805 
1151.522800  	86.255345 
1152.487225  	86.405415 
1153.451649  	86.497148 
1154.416074  	86.597334 
1155.380498  	86.650543 
1156.344923  	86.678670 
1157.309347  	86.714031 
1158.273772  	86.708887 
1159.238196  	86.636617 
1160.202621  	86.600637 
1161.167045  	86.586999 
1162.131469  	86.521388 
1163.095894  	86.405723 
1164.060318  	86.271377 
1165.024743  	86.107464 
1165.989167  	85.940358 
1166.953592  	85.747626 
1167.918016  	85.448869 
1168.882441  	85.105244 
1169.846865  	84.757273 
1170.811290  	84.412382 
1171.775714  	84.092876 
1172.740138  	83.845611 
1173.704563  	83.638060 
1174.668987  	83.448148 
1175.633412  	83.376466 
1176.597836  	83.375707 
1177.562261  	83.379955 
1178.526685  	83.380081 
1179.491110  	83.368483 
1180.455534  	83.348742 
1181.419959  	83.353631 
1182.384383  	83.300011 
1183.348808  	83.187720 
1184.313232  	83.093159 
1185.277656  	82.941180 
1186.242081  	82.724188 
1187.206505  	82.501211 
1188.170930  	82.283892 
1189.135354  	81.982099 
1190.099779  	81.667179 
1191.064203  	81.387775 
