##TITLE=No Description
##DATA TYPE=INFRARED SPECTRUM
##XUNITS=1/CM
##YUNITS=%T
400.236149  	101.306287 
401.200574  	97.155322 
402.164998  	91.377758 
403.129423  	83.990165 
404.093847  	79.885881 
405.058272  	78.673945 
406.022696  	86.169028 
406.987120  	78.158058 
407.951545  	83.721525 
408.915969  	81.486417 
409.880394  	85.755109 
410.844818  	91.122457 
411.809243  	91.479549 
412.773667  	94.224333 
413.738092  	86.188967 
414.702516  	80.819038 
415.666941  	82.191768 
416.631365  	85.871103 
417.595789  	89.545264 
418.560214  	98.126052 
419.524638  	92.626967 
420.489063  	82.711364 
421.453487  	80.923845 
422.417912  	83.126027 
423.382336  	83.710129 
424.346761  	80.255128 
425.311185  	76.722732 
426.275610  	79.137987 
427.240034  	81.467847 
428.204458  	82.823722 
429.168883  	83.294441 
430.133307  	81.435160 
431.097732  	79.143491 
432.062156  	77.500530 
433.026581  	75.849487 
433.991005  	76.299046 
434.955430  	78.248060 
435.919854  	79.621995 
436.884279  	79.301281 
437.848703  	78.611178 
438.813127  	79.428996 
439.777552  	81.069564 
440.741976  	80.802859 
441.706401  	81.651300 
442.670825  	83.780742 
443.635250  	83.501296 
444.599674  	82.729099 
445.564099  	82.695443 
446.528523  	82.112258 
447.492948  	83.312858 
448.457372  	85.387779 
449.421796  	83.971270 
450.386221  	82.081398 
451.350645  	83.247361 
452.315070  	83.668165 
453.279494  	82.664100 
454.243919  	82.841003 
455.208343  	83.196552 
456.172768  	82.496687 
457.137192  	81.825783 
458.101617  	82.390836 
459.066041  	83.319413 
460.030466  	83.039259 
460.994890  	82.503787 
461.959314  	82.492035 
462.923739  	83.363042 
463.888163  	83.012993 
464.852588  	82.398819 
465.817012  	83.111993 
466.781437  	83.412586 
467.745861  	82.843439 
468.710286  	82.078112 
469.674710  	81.451280 
470.639135  	81.522546 
471.603559  	81.463503 
472.567983  	81.407359 
473.532408  	82.226145 
474.496832  	82.110245 
475.461257  	81.774383 
476.425681  	81.106730 
477.390106  	80.858597 
478.354530  	81.706286 
479.318955  	81.693783 
480.283379  	81.513957 
481.247804  	82.030791 
482.212228  	81.665625 
483.176652  	81.797953 
484.141077  	82.101988 
485.105501  	81.387843 
486.069926  	80.864129 
487.034350  	80.963013 
487.998775  	80.602551 
488.963199  	80.641062 
489.927624  	81.083640 
490.892048  	80.235042 
491.856473  	79.544032 
492.820897  	79.952139 
493.785321  	80.297835 
494.749746  	79.633463 
495.714170  	79.144772 
496.678595  	78.967057 
497.643019  	78.725857 
498.607444  	78.956949 
499.571868  	78.726259 
500.536293  	78.118908 
501.500717  	77.748782 
502.465142  	77.743435 
503.429566  	78.151524 
504.393990  	77.703639 
505.358415  	76.973211 
506.322839  	76.554094 
507.287264  	77.402790 
508.251688  	79.013769 
509.216113  	80.289215 
510.180537  	80.451090 
511.144962  	80.822335 
512.109386  	81.274729 
513.073811  	81.482116 
514.038235  	81.745328 
515.002660  	81.314367 
515.967084  	80.724247 
516.931508  	80.700480 
517.895933  	81.152162 
518.860357  	81.425771 
519.824782  	80.869697 
520.789206  	80.842709 
521.753631  	81.495838 
522.718055  	81.620852 
523.682480  	81.382075 
524.646904  	81.229770 
525.611329  	81.003254 
526.575753  	81.112664 
527.540177  	81.596294 
528.504602  	81.909721 
529.469026  	82.134545 
530.433451  	82.301896 
531.397875  	82.491711 
532.362300  	82.357850 
533.326724  	82.494760 
534.291149  	82.497714 
535.255573  	82.512178 
536.219998  	82.440587 
537.184422  	82.887122 
538.148846  	82.982715 
539.113271  	82.799063 
540.077695  	82.959778 
541.042120  	83.198258 
542.006544  	83.207042 
542.970969  	83.174154 
543.935393  	83.324576 
544.899818  	83.210185 
545.864242  	83.083387 
546.828667  	82.661195 
547.793091  	82.460826 
548.757515  	82.424301 
549.721940  	82.752981 
550.686364  	83.047232 
551.650789  	83.304305 
552.615213  	83.055342 
553.579638  	83.091962 
554.544062  	82.995945 
555.508487  	82.844594 
556.472911  	82.665557 
557.437336  	82.490048 
558.401760  	82.536232 
559.366184  	82.843817 
560.330609  	82.931820 
561.295033  	82.967304 
562.259458  	83.102642 
563.223882  	82.885773 
564.188307  	82.679930 
565.152731  	82.889829 
566.117156  	82.979775 
567.081580  	82.827391 
568.046005  	82.605783 
569.010429  	82.605023 
569.974853  	82.868513 
570.939278  	82.862449 
571.903702  	82.667283 
572.868127  	82.675635 
573.832551  	82.646788 
574.796976  	82.711662 
575.761400  	82.290796 
576.725825  	82.361756 
577.690249  	82.584889 
578.654674  	82.699110 
579.619098  	82.771380 
580.583523  	82.644945 
581.547947  	82.694991 
582.512371  	82.875054 
583.476796  	82.735006 
584.441220  	82.571746 
585.405645  	82.708097 
586.370069  	83.054980 
587.334494  	82.965114 
588.298918  	82.917414 
589.263343  	82.688951 
590.227767  	82.574906 
591.192192  	82.416425 
592.156616  	82.429859 
593.121040  	82.582339 
594.085465  	82.623941 
595.049889  	82.512382 
596.014314  	82.539973 
596.978738  	82.568321 
597.943163  	82.631745 
598.907587  	82.583637 
599.872012  	82.310766 
600.836436  	82.355000 
601.800861  	82.477819 
602.765285  	82.365330 
603.729709  	82.298207 
604.694134  	82.375034 
605.658558  	82.380904 
606.622983  	82.363375 
607.587407  	82.150159 
608.551832  	81.998677 
609.516256  	82.193324 
610.480681  	82.036164 
611.445105  	81.845290 
612.409530  	81.906471 
613.373954  	82.144444 
614.338378  	81.930885 
615.302803  	81.574959 
616.267227  	81.552987 
617.231652  	81.944818 
618.196076  	81.912216 
619.160501  	81.645617 
620.124925  	81.487531 
621.089350  	81.505231 
622.053774  	81.528915 
623.018199  	81.775094 
623.982623  	81.742864 
624.947047  	81.513031 
625.911472  	81.392180 
626.875896  	81.446202 
627.840321  	81.364839 
628.804745  	81.208115 
629.769170  	80.746016 
630.733594  	80.184162 
631.698019  	80.073000 
632.662443  	80.269159 
633.626868  	80.619564 
634.591292  	81.155052 
635.555717  	81.321078 
636.520141  	81.281075 
637.484565  	81.247426 
638.448990  	81.339950 
639.413414  	81.330658 
640.377839  	81.271551 
641.342263  	81.175193 
642.306688  	80.956060 
643.271112  	80.988651 
644.235537  	81.046754 
645.199961  	81.056041 
646.164386  	81.112037 
647.128810  	81.168347 
648.093234  	80.986044 
649.057659  	80.826235 
650.022083  	80.880187 
650.986508  	80.819604 
651.950932  	80.642864 
652.915357  	80.493356 
653.879781  	80.470509 
654.844206  	80.472982 
655.808630  	80.296168 
656.773055  	80.112328 
657.737479  	80.111554 
658.701903  	79.996736 
659.666328  	79.713691 
660.630752  	79.616489 
661.595177  	79.576355 
662.559601  	79.429568 
663.524026  	79.349700 
664.488450  	79.299242 
665.452875  	79.116429 
666.417299  	79.112328 
667.381724  	79.346535 
668.346148  	79.277516 
669.310572  	78.859229 
670.274997  	78.661601 
671.239421  	78.565768 
672.203846  	78.452197 
673.168270  	78.205219 
674.132695  	77.873816 
675.097119  	77.768019 
676.061544  	77.613478 
677.025968  	77.367614 
677.990393  	77.103097 
678.954817  	76.995255 
679.919241  	76.929208 
680.883666  	76.861126 
681.848090  	76.809779 
682.812515  	76.843021 
683.776939  	76.753534 
684.741364  	76.570946 
685.705788  	76.335377 
686.670213  	76.320525 
687.634637  	76.094340 
688.599062  	75.702516 
689.563486  	75.418665 
690.527910  	75.223213 
691.492335  	74.836403 
692.456759  	74.322513 
693.421184  	73.832775 
694.385608  	73.415780 
695.350033  	72.824579 
696.314457  	72.244718 
697.278882  	71.527851 
698.243306  	70.738688 
699.207731  	69.945598 
700.172155  	69.215651 
701.136580  	68.398355 
702.101004  	67.679504 
703.065428  	67.082658 
704.029853  	66.442287 
704.994277  	65.745666 
705.958702  	65.081732 
706.923126  	64.256098 
707.887551  	63.434396 
708.851975  	62.545613 
709.816400  	61.482603 
710.780824  	60.462706 
711.745249  	59.340563 
712.709673  	58.078628 
713.674097  	56.693795 
714.638522  	55.280391 
715.602946  	53.726369 
716.567371  	52.014220 
717.531795  	50.360225 
718.496220  	48.700272 
719.460644  	47.304370 
720.425069  	46.157184 
721.389493  	45.210720 
722.353918  	44.612165 
723.318342  	44.600908 
724.282766  	45.445854 
725.247191  	47.148279 
726.211615  	49.485226 
727.176040  	52.262007 
728.140464  	55.023407 
729.104889  	57.718084 
730.069313  	60.375745 
731.033738  	63.114282 
731.998162  	65.778696 
732.962587  	68.524503 
733.927011  	71.312027 
734.891435  	74.081316 
735.855860  	76.811512 
736.820284  	79.344362 
737.784709  	81.578413 
738.749133  	83.605153 
739.713558  	85.275462 
740.677982  	86.578393 
741.642407  	87.481419 
742.606831  	88.185983 
743.571256  	88.651101 
744.535680  	88.833550 
745.500104  	88.960539 
746.464529  	89.071260 
747.428953  	89.082726 
748.393378  	89.024537 
749.357802  	88.884891 
750.322227  	88.808989 
751.286651  	88.799109 
752.251076  	88.767764 
753.215500  	88.638348 
754.179925  	88.445624 
755.144349  	88.350490 
756.108774  	88.330351 
757.073198  	88.151240 
758.037622  	87.917281 
759.002047  	87.704545 
759.966471  	87.595756 
760.930896  	87.501629 
761.895320  	87.398203 
762.859745  	87.356696 
763.824169  	87.327708 
764.788594  	87.181150 
765.753018  	86.987360 
766.717443  	86.809808 
767.681867  	86.584715 
768.646291  	86.347851 
769.610716  	86.286662 
770.575140  	86.171777 
771.539565  	85.998801 
772.503989  	85.817981 
773.468414  	85.665442 
774.432838  	85.640240 
775.397263  	85.594734 
776.361687  	85.364027 
777.326112  	85.120360 
778.290536  	85.014151 
779.254960  	84.897029 
780.219385  	84.675418 
781.183809  	84.602002 
782.148234  	84.253995 
783.112658  	84.041215 
784.077083  	83.884215 
785.041507  	83.598810 
786.005932  	83.376227 
786.970356  	83.042263 
787.934781  	82.638328 
788.899205  	82.319974 
789.863629  	82.147716 
790.828054  	81.875211 
791.792478  	81.519985 
792.756903  	81.402713 
793.721327  	81.610938 
794.685752  	82.023832 
795.650176  	82.604083 
796.614601  	83.186113 
797.579025  	83.667897 
798.543450  	83.807178 
799.507874  	83.803094 
800.472298  	83.844938 
801.436723  	83.795073 
802.401147  	83.645174 
803.365572  	83.551824 
804.329996  	83.629559 
805.294421  	83.642025 
806.258845  	83.590139 
807.223270  	83.575130 
808.187694  	83.501073 
809.152119  	83.449879 
810.116543  	83.365929 
811.080967  	83.358600 
812.045392  	83.305650 
813.009816  	83.240767 
813.974241  	83.277650 
814.938665  	83.298083 
815.903090  	83.269122 
816.867514  	83.169667 
817.831939  	83.097009 
818.796363  	83.074416 
819.760788  	83.072798 
820.725212  	83.054174 
821.689637  	82.904487 
822.654061  	82.807802 
823.618485  	82.728414 
824.582910  	82.512587 
825.547334  	82.238459 
826.511759  	82.052129 
827.476183  	81.961254 
828.440608  	81.852048 
829.405032  	81.603334 
830.369457  	81.375243 
831.333881  	81.277464 
832.298306  	81.125888 
833.262730  	80.878392 
834.227154  	80.626405 
835.191579  	80.312527 
836.156003  	79.954722 
837.120428  	79.597106 
838.084852  	79.225132 
839.049277  	78.965098 
840.013701  	78.721342 
840.978126  	78.350433 
841.942550  	78.029598 
842.906975  	77.711741 
843.871399  	77.325542 
844.835823  	77.017694 
845.800248  	76.845984 
846.764672  	76.826968 
847.729097  	76.934868 
848.693521  	77.138183 
849.657946  	77.510524 
850.622370  	77.948040 
851.586795  	78.322850 
852.551219  	78.494843 
853.515644  	78.679549 
854.480068  	78.896176 
855.444492  	78.994301 
856.408917  	79.067601 
857.373341  	79.161118 
858.337766  	79.299291 
859.302190  	79.389184 
860.266615  	79.426097 
861.231039  	79.426712 
862.195464  	79.288246 
863.159888  	79.027368 
864.124313  	78.703936 
865.088737  	78.186461 
866.053161  	77.525487 
867.017586  	76.648565 
867.982010  	75.503783 
868.946435  	74.051028 
869.910859  	72.227932 
870.875284  	70.360412 
871.839708  	69.370030 
872.804133  	70.069389 
873.768557  	72.042836 
874.732982  	74.123527 
875.697406  	75.792219 
876.661831  	77.053232 
877.626255  	78.048791 
878.590679  	78.945444 
879.555104  	79.721318 
880.519528  	80.350025 
881.483953  	80.923032 
882.448377  	81.427293 
883.412802  	81.881616 
884.377226  	82.264685 
885.341651  	82.530944 
886.306075  	82.656651 
887.270500  	82.797926 
888.234924  	82.941996 
889.199348  	82.857737 
890.163773  	82.707094 
891.128197  	82.683546 
892.092622  	82.668372 
893.057046  	82.592039 
894.021471  	82.482560 
894.985895  	82.415165 
895.950320  	82.328508 
896.914744  	82.239094 
897.879169  	82.193714 
898.843593  	82.221181 
899.808017  	82.306376 
900.772442  	82.341259 
901.736866  	82.399472 
902.701291  	82.522824 
903.665715  	82.675096 
904.630140  	82.765683 
905.594564  	82.770937 
906.558989  	82.926606 
907.523413  	83.122084 
908.487838  	83.163875 
909.452262  	83.218152 
910.416686  	83.353813 
911.381111  	83.458464 
912.345535  	83.440794 
913.309960  	83.409124 
914.274384  	83.382732 
915.238809  	83.332386 
916.203233  	83.267064 
917.167658  	83.255848 
918.132082  	83.235150 
919.096507  	83.215976 
920.060931  	83.199909 
921.025355  	83.144109 
921.989780  	83.051520 
922.954204  	82.964704 
923.918629  	82.864876 
924.883053  	82.781672 
925.847478  	82.717454 
926.811902  	82.630665 
927.776327  	82.552187 
928.740751  	82.440973 
929.705176  	82.334306 
930.669600  	82.244733 
931.634024  	82.144079 
932.598449  	82.070211 
933.562873  	81.989527 
934.527298  	81.890095 
935.491722  	81.722640 
936.456147  	81.654062 
937.420571  	81.595513 
938.384996  	81.429044 
939.349420  	81.291664 
940.313845  	81.199002 
941.278269  	81.099061 
942.242694  	80.966618 
943.207118  	80.819340 
944.171542  	80.710370 
945.135967  	80.601273 
946.100391  	80.414671 
947.064816  	80.206112 
948.029240  	80.064396 
948.993665  	79.931479 
949.958089  	79.746729 
950.922514  	79.585245 
951.886938  	79.436895 
952.851363  	79.231457 
953.815787  	78.958193 
954.780211  	78.767806 
955.744636  	78.634086 
956.709060  	78.405802 
957.673485  	78.118339 
958.637909  	77.844477 
959.602334  	77.553201 
960.566758  	77.251193 
961.531183  	76.933516 
962.495607  	76.629120 
963.460032  	76.353239 
964.424456  	76.068652 
965.388880  	75.760614 
966.353305  	75.511870 
967.317729  	75.340200 
968.282154  	75.141749 
969.246578  	74.999178 
970.211003  	74.965747 
971.175427  	75.030969 
972.139852  	75.150078 
973.104276  	75.349478 
974.068701  	75.645471 
975.033125  	75.987279 
975.997549  	76.290313 
976.961974  	76.559963 
977.926398  	76.804098 
978.890823  	77.026734 
979.855247  	77.210451 
980.819672  	77.326017 
981.784096  	77.399647 
982.748521  	77.449096 
983.712945  	77.419131 
984.677370  	77.340632 
985.641794  	77.306966 
986.606218  	77.279038 
987.570643  	77.238924 
988.535067  	77.167181 
989.499492  	77.093238 
990.463916  	77.035476 
991.428341  	76.982954 
992.392765  	76.847566 
993.357190  	76.656179 
994.321614  	76.484970 
995.286039  	76.300709 
996.250463  	76.086403 
997.214888  	75.834297 
998.179312  	75.601838 
999.143736  	75.357532 
1000.108161  	75.057601 
1001.072585  	74.768156 
1002.037010  	74.513679 
1003.001434  	74.200694 
1003.965859  	73.795351 
1004.930283  	73.349116 
1005.894708  	72.862741 
1006.859132  	72.286886 
1007.823557  	71.599489 
1008.787981  	70.851781 
1009.752405  	70.026563 
1010.716830  	69.024228 
1011.681254  	67.815393 
1012.645679  	66.438713 
1013.610103  	64.979717 
1014.574528  	63.518617 
1015.538952  	62.334815 
1016.503377  	61.816519 
1017.467801  	62.016006 
1018.432226  	62.847172 
1019.396650  	64.133492 
1020.361074  	65.675631 
1021.325499  	67.233589 
1022.289923  	68.670267 
1023.254348  	70.143246 
1024.218772  	71.782696 
1025.183197  	73.562356 
1026.147621  	75.194078 
1027.112046  	76.332338 
1028.076470  	76.882720 
1029.040895  	77.007059 
1030.005319  	76.900214 
1030.969743  	76.648867 
1031.934168  	76.362893 
1032.898592  	76.062662 
1033.863017  	75.750701 
1034.827441  	75.408442 
1035.791866  	75.102807 
1036.756290  	74.821066 
1037.720715  	74.566478 
1038.685139  	74.329190 
1039.649564  	74.148788 
1040.613988  	73.969800 
1041.578412  	73.753128 
1042.542837  	73.591761 
1043.507261  	73.503899 
1044.471686  	73.359514 
1045.436110  	73.223123 
1046.400535  	73.193965 
1047.364959  	73.139891 
1048.329384  	73.029534 
1049.293808  	72.963411 
1050.258233  	72.954604 
1051.222657  	72.952063 
1052.187081  	72.854279 
1053.151506  	72.681753 
1054.115930  	72.591493 
1055.080355  	72.505430 
1056.044779  	72.297359 
1057.009204  	72.032103 
1057.973628  	71.814969 
1058.938053  	71.566991 
1059.902477  	71.230688 
1060.866902  	70.884421 
1061.831326  	70.624832 
1062.795751  	70.332958 
1063.760175  	69.947737 
1064.724599  	69.553278 
1065.689024  	69.173175 
1066.653448  	68.722655 
1067.617873  	68.217972 
1068.582297  	67.685977 
1069.546722  	67.131321 
1070.511146  	66.559616 
1071.475571  	65.947492 
1072.439995  	65.311699 
1073.404420  	64.638671 
1074.368844  	63.883849 
1075.333268  	63.074758 
1076.297693  	62.281766 
1077.262117  	61.497781 
1078.226542  	60.698361 
1079.190966  	59.923359 
1080.155391  	59.188770 
1081.119815  	58.543847 
1082.084240  	57.925676 
1083.048664  	57.428433 
1084.013089  	57.059626 
1084.977513  	56.685954 
1085.941937  	56.263479 
1086.906362  	55.925765 
1087.870786  	55.678386 
1088.835211  	55.427734 
1089.799635  	55.145061 
1090.764060  	54.917052 
1091.728484  	54.749313 
1092.692909  	54.559988 
1093.657333  	54.382686 
1094.621758  	54.308322 
1095.586182  	54.390331 
1096.550606  	54.491671 
1097.515031  	54.639050 
1098.479455  	54.935853 
1099.443880  	55.303092 
1100.408304  	55.738239 
1101.372729  	56.287425 
1102.337153  	56.912938 
1103.301578  	57.556878 
1104.266002  	58.255633 
1105.230427  	58.993877 
1106.194851  	59.748901 
1107.159275  	60.493625 
1108.123700  	61.153043 
1109.088124  	61.765356 
1110.052549  	62.295544 
1111.016973  	62.727551 
1111.981398  	63.002427 
1112.945822  	63.151548 
1113.910247  	63.254673 
1114.874671  	63.223093 
1115.839096  	63.136302 
1116.803520  	63.088368 
1117.767945  	63.083259 
1118.732369  	63.168182 
1119.696793  	63.422668 
1120.661218  	63.775929 
1121.625642  	64.177076 
1122.590067  	64.664494 
1123.554491  	65.240985 
1124.518916  	65.879702 
1125.483340  	66.594347 
1126.447765  	67.413261 
1127.412189  	68.313313 
1128.376614  	69.228543 
1129.341038  	70.203157 
1130.305462  	71.236089 
1131.269887  	72.292686 
1132.234311  	73.356862 
1133.198736  	74.430202 
1134.163160  	75.502909 
1135.127585  	76.548171 
1136.092009  	77.526512 
1137.056434  	78.484193 
1138.020858  	79.426159 
1138.985283  	80.235233 
1139.949707  	80.967106 
1140.914131  	81.668097 
1141.878556  	82.261208 
1142.842980  	82.781387 
1143.807405  	83.304374 
1144.771829  	83.808033 
1145.736254  	84.229798 
1146.700678  	84.594200 
1147.665103  	84.897136 
1148.629527  	85.192289 
1149.593952  	85.470863 
1150.558376  	85.702039 
1151.522800  	85.901289 
1152.487225  	86.072598 
1153.451649  	86.210130 
1154.416074  	86.294757 
1155.380498  	86.348300 
1156.344923  	86.415446 
1157.309347  	86.483250 
1158.273772  	86.503331 
1159.238196  	86.458589 
1160.202621  	86.434234 
1161.167045  	86.421093 
1162.131469  	86.373592 
1163.095894  	86.288559 
1164.060318  	86.225688 
1165.024743  	86.139544 
1165.989167  	85.975930 
1166.953592  	85.771552 
1167.918016  	85.568641 
1168.882441  	85.312064 
1169.846865  	84.975759 
1170.811290  	84.648052 
1171.775714  	84.369634 
1172.740138  	84.164869 
1173.704563  	83.993904 
1174.668987  	83.829276 
1175.633412  	83.807375 
1176.597836  	83.868048 
1177.562261  	83.891886 
1178.526685  	83.919277 
1179.491110  	83.972229 
1180.455534  	84.013274 
1181.419959  	84.045274 
1182.384383  	84.033033 
1183.348808  	83.998318 
1184.313232  	83.944809 
1185.277656  	83.801659 
1186.242081  	83.597269 
1187.206505  	83.393177 
1188.170930  	83.173498 
1189.135354  	82.902296 
1190.099779  	82.598767 
1191.064203  	82.293250 
