##TITLE=No Description
##DATA TYPE=INFRARED SPECTRUM
##XUNITS=1/CM
##YUNITS=%T
400.236149  	155.675644 
401.200574  	106.270439 
402.164998  	87.515684 
403.129423  	75.847659 
404.093847  	73.000309 
405.058272  	95.083238 
406.022696  	91.375102 
406.987120  	84.385541 
407.951545  	102.854167 
408.915969  	81.468873 
409.880394  	83.573103 
410.844818  	96.370710 
411.809243  	88.757599 
412.773667  	100.372270 
413.738092  	91.022751 
414.702516  	76.367191 
415.666941  	85.477274 
416.631365  	83.824349 
417.595789  	88.806618 
418.560214  	104.373676 
419.524638  	93.243049 
420.489063  	96.771647 
421.453487  	86.325645 
422.417912  	80.936883 
423.382336  	86.028062 
424.346761  	82.913182 
425.311185  	80.592221 
426.275610  	83.791026 
427.240034  	80.913929 
428.204458  	86.554987 
429.168883  	88.020703 
430.133307  	85.317671 
431.097732  	85.520651 
432.062156  	81.778533 
433.026581  	82.018006 
433.991005  	84.743570 
434.955430  	84.340479 
435.919854  	83.163855 
436.884279  	80.948650 
437.848703  	80.618414 
438.813127  	85.398826 
439.777552  	84.744187 
440.741976  	82.444478 
441.706401  	84.434398 
442.670825  	82.390861 
443.635250  	80.189073 
444.599674  	82.092390 
445.564099  	81.869208 
446.528523  	81.310393 
447.492948  	81.203229 
448.457372  	81.856579 
449.421796  	83.281707 
450.386221  	80.736291 
451.350645  	80.038040 
452.315070  	81.993234 
453.279494  	79.503697 
454.243919  	79.802671 
455.208343  	80.225395 
456.172768  	78.350474 
457.137192  	79.886341 
458.101617  	80.018190 
459.066041  	79.442082 
460.030466  	79.757904 
460.994890  	78.610291 
461.959314  	79.175540 
462.923739  	79.418463 
463.888163  	78.295269 
464.852588  	78.933433 
465.817012  	79.095092 
466.781437  	78.597304 
467.745861  	79.003643 
468.710286  	78.181471 
469.674710  	77.219632 
470.639135  	77.762104 
471.603559  	77.527917 
472.567983  	78.346058 
473.532408  	79.134070 
474.496832  	76.827228 
475.461257  	77.316410 
476.425681  	76.898023 
477.390106  	77.536845 
478.354530  	78.864279 
479.318955  	76.519533 
480.283379  	76.707965 
481.247804  	77.348695 
482.212228  	76.482183 
483.176652  	76.945812 
484.141077  	77.065079 
485.105501  	76.129949 
486.069926  	76.305896 
487.034350  	75.924845 
487.998775  	76.226145 
488.963199  	76.618623 
489.927624  	76.167054 
490.892048  	76.217781 
491.856473  	75.214933 
492.820897  	75.677095 
493.785321  	76.423130 
494.749746  	75.697573 
495.714170  	75.426833 
496.678595  	75.573279 
497.643019  	75.600648 
498.607444  	75.166934 
499.571868  	75.280049 
500.536293  	75.169831 
501.500717  	74.671408 
502.465142  	74.041046 
503.429566  	74.545776 
504.393990  	75.096509 
505.358415  	74.481263 
506.322839  	74.003077 
507.287264  	74.119794 
508.251688  	74.180814 
509.216113  	74.508799 
510.180537  	74.221401 
511.144962  	73.889034 
512.109386  	74.353418 
513.073811  	74.289076 
514.038235  	74.008607 
515.002660  	73.881133 
515.967084  	72.906562 
516.931508  	72.699701 
517.895933  	73.158741 
518.860357  	72.979198 
519.824782  	72.944831 
520.789206  	72.795770 
521.753631  	72.818030 
522.718055  	73.169002 
523.682480  	72.253597 
524.646904  	72.200525 
525.611329  	72.235469 
526.575753  	71.614169 
527.540177  	71.863982 
528.504602  	71.548686 
529.469026  	71.124819 
530.433451  	71.053887 
531.397875  	70.986172 
532.362300  	70.619121 
533.326724  	70.932348 
534.291149  	70.808901 
535.255573  	70.979739 
536.219998  	71.324055 
537.184422  	71.612557 
538.148846  	71.941096 
539.113271  	72.212657 
540.077695  	72.431761 
541.042120  	72.827084 
542.006544  	72.901031 
542.970969  	73.126839 
543.935393  	73.069542 
544.899818  	72.620183 
545.864242  	73.047373 
546.828667  	72.852617 
547.793091  	72.097682 
548.757515  	72.370068 
549.721940  	72.626514 
550.686364  	72.570054 
551.650789  	72.556888 
552.615213  	72.000071 
553.579638  	72.260516 
554.544062  	72.098205 
555.508487  	71.601340 
556.472911  	71.077232 
557.437336  	70.768475 
558.401760  	70.703903 
559.366184  	70.775134 
560.330609  	70.132734 
561.295033  	69.652407 
562.259458  	69.376073 
563.223882  	68.558302 
564.188307  	68.060492 
565.152731  	67.911213 
566.117156  	67.536105 
567.081580  	66.950190 
568.046005  	66.398892 
569.010429  	65.757697 
569.974853  	65.332888 
570.939278  	64.676082 
571.903702  	64.275059 
572.868127  	63.872096 
573.832551  	63.160792 
574.796976  	63.167717 
575.761400  	62.642054 
576.725825  	62.390825 
577.690249  	62.627461 
578.654674  	62.833583 
579.619098  	63.228504 
580.583523  	63.888472 
581.547947  	64.564873 
582.512371  	65.708003 
583.476796  	66.380748 
584.441220  	66.811423 
585.405645  	67.879781 
586.370069  	68.912742 
587.334494  	69.740655 
588.298918  	70.439838 
589.263343  	70.645740 
590.227767  	71.165999 
591.192192  	71.484068 
592.156616  	71.562390 
593.121040  	72.287301 
594.085465  	72.778626 
595.049889  	72.850601 
596.014314  	73.250832 
596.978738  	73.439869 
597.943163  	73.591653 
598.907587  	73.621268 
599.872012  	73.507029 
600.836436  	73.921478 
601.800861  	74.046267 
602.765285  	73.998958 
603.729709  	74.235962 
604.694134  	74.489235 
605.658558  	74.710604 
606.622983  	74.726918 
607.587407  	74.499553 
608.551832  	74.684195 
609.516256  	74.848278 
610.480681  	74.616223 
611.445105  	74.705148 
612.409530  	74.817954 
613.373954  	75.161265 
614.338378  	74.956279 
615.302803  	74.638674 
616.267227  	74.613146 
617.231652  	74.691769 
618.196076  	74.842335 
619.160501  	74.833311 
620.124925  	74.784694 
621.089350  	74.848203 
622.053774  	74.750768 
623.018199  	75.020576 
623.982623  	75.051084 
624.947047  	74.965467 
625.911472  	74.758717 
626.875896  	74.764331 
627.840321  	74.792660 
628.804745  	74.922583 
629.769170  	74.840180 
630.733594  	74.863765 
631.698019  	74.818827 
632.662443  	74.622571 
633.626868  	74.573640 
634.591292  	74.711548 
635.555717  	74.519731 
636.520141  	74.501645 
637.484565  	74.395831 
638.448990  	74.286809 
639.413414  	74.345287 
640.377839  	74.290949 
641.342263  	73.998297 
642.306688  	73.808451 
643.271112  	73.665453 
644.235537  	73.583897 
645.199961  	73.615893 
646.164386  	73.554858 
647.128810  	73.324966 
648.093234  	73.152979 
649.057659  	72.881400 
650.022083  	72.826840 
650.986508  	72.665431 
651.950932  	72.520907 
652.915357  	72.221522 
653.879781  	71.959256 
654.844206  	71.776315 
655.808630  	71.489835 
656.773055  	71.254897 
657.737479  	71.106842 
658.701903  	70.707430 
659.666328  	70.419326 
660.630752  	70.213830 
661.595177  	69.876132 
662.559601  	69.606104 
663.524026  	69.333159 
664.488450  	69.018010 
665.452875  	68.819307 
666.417299  	68.527978 
667.381724  	68.437917 
668.346148  	68.265019 
669.310572  	67.830321 
670.274997  	67.581544 
671.239421  	67.263747 
672.203846  	67.037850 
673.168270  	66.885100 
674.132695  	66.515491 
675.097119  	66.254791 
676.061544  	66.086150 
677.025968  	65.921807 
677.990393  	65.836169 
678.954817  	65.659395 
679.919241  	65.575018 
680.883666  	65.623926 
681.848090  	65.490221 
682.812515  	65.330260 
683.776939  	65.273719 
684.741364  	65.385321 
685.705788  	65.489034 
686.670213  	65.617371 
687.634637  	65.710456 
688.599062  	65.982500 
689.563486  	66.277626 
690.527910  	66.615196 
691.492335  	66.997198 
692.456759  	67.460105 
693.421184  	67.939978 
694.385608  	68.507341 
695.350033  	68.955220 
696.314457  	69.364141 
697.278882  	69.765172 
698.243306  	70.164423 
699.207731  	70.566120 
700.172155  	71.038144 
701.136580  	71.376528 
702.101004  	71.610478 
703.065428  	71.857429 
704.029853  	72.118022 
704.994277  	72.439135 
705.958702  	72.793364 
706.923126  	72.977075 
707.887551  	73.200299 
708.851975  	73.457016 
709.816400  	73.593246 
710.780824  	73.749654 
711.745249  	73.886120 
712.709673  	74.029175 
713.674097  	73.986757 
714.638522  	74.070138 
715.602946  	74.231429 
716.567371  	74.279202 
717.531795  	74.376913 
718.496220  	74.355745 
719.460644  	74.290061 
720.425069  	74.351198 
721.389493  	74.450131 
722.353918  	74.439641 
723.318342  	74.407729 
724.282766  	74.440559 
725.247191  	74.496227 
726.211615  	74.441734 
727.176040  	74.285422 
728.140464  	74.190923 
729.104889  	74.251589 
730.069313  	74.469547 
731.033738  	75.020394 
731.998162  	75.667038 
732.962587  	76.340290 
733.927011  	77.030353 
734.891435  	77.664808 
735.855860  	78.312472 
736.820284  	79.033872 
737.784709  	79.681501 
738.749133  	80.321383 
739.713558  	80.770132 
740.677982  	81.070796 
741.642407  	81.429866 
742.606831  	81.744169 
743.571256  	82.018033 
744.535680  	82.195434 
745.500104  	82.341020 
746.464529  	82.442340 
747.428953  	82.508763 
748.393378  	82.626755 
749.357802  	82.683571 
750.322227  	82.706197 
751.286651  	82.779168 
752.251076  	82.968630 
753.215500  	83.093870 
754.179925  	83.274597 
755.144349  	83.308966 
756.108774  	83.399845 
757.073198  	83.596012 
758.037622  	83.636645 
759.002047  	83.692916 
759.966471  	83.860213 
760.930896  	83.984353 
761.895320  	84.173653 
762.859745  	84.380574 
763.824169  	84.499594 
764.788594  	84.615218 
765.753018  	84.752796 
766.717443  	84.787664 
767.681867  	84.785197 
768.646291  	84.858482 
769.610716  	85.032562 
770.575140  	85.146528 
771.539565  	85.297565 
772.503989  	85.367749 
773.468414  	85.546886 
774.432838  	85.681189 
775.397263  	85.839991 
776.361687  	85.933715 
777.326112  	85.955695 
778.290536  	86.109089 
779.254960  	86.233621 
780.219385  	86.448818 
781.183809  	86.572143 
782.148234  	86.360964 
783.112658  	86.672604 
784.077083  	86.702273 
785.041507  	86.678683 
786.005932  	86.886404 
786.970356  	86.780941 
787.934781  	86.716296 
788.899205  	86.757088 
789.863629  	86.898808 
790.828054  	87.028148 
791.792478  	86.968482 
792.756903  	86.915129 
793.721327  	86.986362 
794.685752  	86.934089 
795.650176  	87.056217 
796.614601  	87.218268 
797.579025  	87.265376 
798.543450  	87.220319 
799.507874  	87.335904 
800.472298  	87.631307 
801.436723  	87.806788 
802.401147  	87.855023 
803.365572  	88.029142 
804.329996  	88.176284 
805.294421  	88.236277 
806.258845  	88.293548 
807.223270  	88.441472 
808.187694  	88.420857 
809.152119  	88.494415 
810.116543  	88.631502 
811.080967  	88.673799 
812.045392  	88.681530 
813.009816  	88.711771 
813.974241  	88.866172 
814.938665  	89.056623 
815.903090  	89.087310 
816.867514  	89.075859 
817.831939  	89.182551 
818.796363  	89.354583 
819.760788  	89.444510 
820.725212  	89.482025 
821.689637  	89.487383 
822.654061  	89.545309 
823.618485  	89.637715 
824.582910  	89.689413 
825.547334  	89.608432 
826.511759  	89.599351 
827.476183  	89.745759 
828.440608  	89.886383 
829.405032  	89.905460 
830.369457  	89.886821 
831.333881  	89.962768 
832.298306  	90.078486 
833.262730  	90.077562 
834.227154  	90.137010 
835.191579  	90.275218 
836.156003  	90.265052 
837.120428  	90.183325 
838.084852  	90.249131 
839.049277  	90.352266 
840.013701  	90.409400 
840.978126  	90.342713 
841.942550  	90.350784 
842.906975  	90.469396 
843.871399  	90.497309 
844.835823  	90.354783 
845.800248  	90.433079 
846.764672  	90.546298 
847.729097  	90.624149 
848.693521  	90.626846 
849.657946  	90.587522 
850.622370  	90.654684 
851.586795  	90.673527 
852.551219  	90.550918 
853.515644  	90.626219 
854.480068  	90.719990 
855.444492  	90.673231 
856.408917  	90.620201 
857.373341  	90.590467 
858.337766  	90.712414 
859.302190  	90.790805 
860.266615  	90.760397 
861.231039  	90.836499 
862.195464  	90.868095 
863.159888  	90.850519 
864.124313  	90.853167 
865.088737  	90.807375 
866.053161  	90.800457 
867.017586  	90.820195 
867.982010  	90.798104 
868.946435  	90.879347 
869.910859  	90.915667 
870.875284  	90.845127 
871.839708  	90.865042 
872.804133  	90.858528 
873.768557  	90.849368 
874.732982  	90.832523 
875.697406  	90.694064 
876.661831  	90.623439 
877.626255  	90.699768 
878.590679  	90.755046 
879.555104  	90.791819 
880.519528  	90.738840 
881.483953  	90.615049 
882.448377  	90.634066 
883.412802  	90.586760 
884.377226  	90.571033 
885.341651  	90.706226 
886.306075  	90.602003 
887.270500  	90.530252 
888.234924  	90.625515 
889.199348  	90.534693 
890.163773  	90.433934 
891.128197  	90.446729 
892.092622  	90.484220 
893.057046  	90.382531 
894.021471  	90.294226 
894.985895  	90.335489 
895.950320  	90.221354 
896.914744  	89.989684 
897.879169  	89.875174 
898.843593  	89.745494 
899.808017  	89.508947 
900.772442  	89.250988 
901.736866  	88.887195 
902.701291  	88.625625 
903.665715  	88.377648 
904.630140  	88.059437 
905.594564  	87.858491 
906.558989  	87.935407 
907.523413  	88.246192 
908.487838  	88.552054 
909.452262  	88.745373 
910.416686  	89.002136 
911.381111  	89.185370 
912.345535  	89.144021 
913.309960  	89.128123 
914.274384  	89.094082 
915.238809  	89.001271 
916.203233  	88.879961 
917.167658  	88.742686 
918.132082  	88.581300 
919.096507  	88.471955 
920.060931  	88.365618 
921.025355  	88.195310 
921.989780  	87.973498 
922.954204  	87.738985 
923.918629  	87.446910 
924.883053  	87.121782 
925.847478  	86.782543 
926.811902  	86.406971 
927.776327  	85.914066 
928.740751  	85.354516 
929.705176  	84.753089 
930.669600  	84.072015 
931.634024  	83.373357 
932.598449  	82.720456 
933.562873  	82.244892 
934.527298  	82.107930 
935.491722  	82.287809 
936.456147  	82.890085 
937.420571  	83.769108 
938.384996  	84.699207 
939.349420  	85.632415 
940.313845  	86.441314 
941.278269  	87.133936 
942.242694  	87.657679 
943.207118  	88.040078 
944.171542  	88.398970 
945.135967  	88.712637 
946.100391  	88.926613 
947.064816  	89.086076 
948.029240  	89.218463 
948.993665  	89.361683 
949.958089  	89.479259 
950.922514  	89.573155 
951.886938  	89.722215 
952.851363  	89.777349 
953.815787  	89.787155 
954.780211  	89.855564 
955.744636  	89.953362 
956.709060  	90.057139 
957.673485  	90.108517 
958.637909  	90.093950 
959.602334  	90.102206 
960.566758  	90.157293 
961.531183  	90.178169 
962.495607  	90.184873 
963.460032  	90.227357 
964.424456  	90.287502 
965.388880  	90.263446 
966.353305  	90.272792 
967.317729  	90.364414 
968.282154  	90.390792 
969.246578  	90.366509 
970.211003  	90.343964 
971.175427  	90.346047 
972.139852  	90.340635 
973.104276  	90.305042 
974.068701  	90.301860 
975.033125  	90.294624 
975.997549  	90.252065 
976.961974  	90.223744 
977.926398  	90.201862 
978.890823  	90.211601 
979.855247  	90.159929 
980.819672  	90.065361 
981.784096  	90.057383 
982.748521  	90.002306 
983.712945  	89.879201 
984.677370  	89.734439 
985.641794  	89.637059 
986.606218  	89.624509 
987.570643  	89.568266 
988.535067  	89.495825 
989.499492  	89.482942 
990.463916  	89.496465 
991.428341  	89.482172 
992.392765  	89.390261 
993.357190  	89.293153 
994.321614  	89.257173 
995.286039  	89.226621 
996.250463  	89.147302 
997.214888  	89.122193 
998.179312  	89.110535 
999.143736  	89.039342 
1000.108161  	88.965437 
1001.072585  	88.934035 
1002.037010  	88.923882 
1003.001434  	88.875579 
1003.965859  	88.805660 
1004.930283  	88.761671 
1005.894708  	88.654630 
1006.859132  	88.500679 
1007.823557  	88.428272 
1008.787981  	88.345321 
1009.752405  	88.257751 
1010.716830  	88.141495 
1011.681254  	88.036485 
1012.645679  	88.047409 
1013.610103  	88.024761 
1014.574528  	87.953994 
1015.538952  	87.926858 
1016.503377  	87.934661 
1017.467801  	87.944236 
1018.432226  	87.905292 
1019.396650  	87.898945 
1020.361074  	87.946992 
1021.325499  	87.955234 
1022.289923  	87.937533 
1023.254348  	87.936436 
1024.218772  	87.855894 
1025.183197  	87.762682 
1026.147621  	87.714493 
1027.112046  	87.658551 
1028.076470  	87.611321 
1029.040895  	87.527017 
1030.005319  	87.449725 
1030.969743  	87.409451 
1031.934168  	87.359579 
1032.898592  	87.351743 
1033.863017  	87.294109 
1034.827441  	87.136879 
1035.791866  	87.058020 
1036.756290  	87.008951 
1037.720715  	86.937328 
1038.685139  	86.877748 
1039.649564  	86.843619 
1040.613988  	86.855069 
1041.578412  	86.862845 
1042.542837  	86.844622 
1043.507261  	86.941875 
1044.471686  	87.014576 
1045.436110  	87.051807 
1046.400535  	87.162740 
1047.364959  	87.238835 
1048.329384  	87.276997 
1049.293808  	87.377045 
1050.258233  	87.493478 
1051.222657  	87.552959 
1052.187081  	87.502342 
1053.151506  	87.462114 
1054.115930  	87.508336 
1055.080355  	87.492897 
1056.044779  	87.436131 
1057.009204  	87.369720 
1057.973628  	87.315218 
1058.938053  	87.297534 
1059.902477  	87.203374 
1060.866902  	87.082500 
1061.831326  	87.106166 
1062.795751  	87.099776 
1063.760175  	87.014518 
1064.724599  	86.994832 
1065.689024  	87.046459 
1066.653448  	87.138953 
1067.617873  	87.231061 
1068.582297  	87.321394 
1069.546722  	87.513528 
1070.511146  	87.726600 
1071.475571  	87.870599 
1072.439995  	87.958521 
1073.404420  	88.037942 
1074.368844  	88.075329 
1075.333268  	88.079322 
1076.297693  	88.050660 
1077.262117  	87.981563 
1078.226542  	88.026454 
1079.190966  	88.075032 
1080.155391  	88.008575 
1081.119815  	87.979792 
1082.084240  	87.944308 
1083.048664  	87.891491 
1084.013089  	87.890039 
1084.977513  	87.844805 
1085.941937  	87.728680 
1086.906362  	87.605398 
1087.870786  	87.527659 
1088.835211  	87.483185 
1089.799635  	87.406246 
1090.764060  	87.310800 
1091.728484  	87.284119 
1092.692909  	87.300420 
1093.657333  	87.248974 
1094.621758  	87.140947 
1095.586182  	87.158587 
1096.550606  	87.184136 
1097.515031  	87.154044 
1098.479455  	87.130766 
1099.443880  	87.136353 
1100.408304  	87.172414 
1101.372729  	87.176956 
1102.337153  	87.184780 
1103.301578  	87.217762 
1104.266002  	87.238456 
1105.230427  	87.237483 
1106.194851  	87.238171 
1107.159275  	87.265921 
1108.123700  	87.256189 
1109.088124  	87.238280 
1110.052549  	87.246316 
1111.016973  	87.254763 
1111.981398  	87.251599 
1112.945822  	87.248313 
1113.910247  	87.243769 
1114.874671  	87.253840 
1115.839096  	87.234737 
1116.803520  	87.205480 
1117.767945  	87.144146 
1118.732369  	87.069736 
1119.696793  	87.058510 
1120.661218  	86.979124 
1121.625642  	86.827362 
1122.590067  	86.787639 
1123.554491  	86.704621 
1124.518916  	86.555484 
1125.483340  	86.482603 
1126.447765  	86.416204 
1127.412189  	86.305939 
1128.376614  	86.135112 
1129.341038  	85.943072 
1130.305462  	85.789741 
1131.269887  	85.578463 
1132.234311  	85.257571 
1133.198736  	84.908543 
1134.163160  	84.448547 
1135.127585  	83.944021 
1136.092009  	83.408212 
1137.056434  	82.949535 
1138.020858  	82.709287 
1138.985283  	82.565155 
1139.949707  	82.512686 
1140.914131  	82.601785 
1141.878556  	82.669769 
1142.842980  	82.684294 
1143.807405  	82.725067 
1144.771829  	82.752146 
1145.736254  	82.780495 
1146.700678  	82.785950 
1147.665103  	82.764580 
1148.629527  	82.874624 
1149.593952  	83.039213 
1150.558376  	83.232447 
1151.522800  	83.444895 
1152.487225  	83.658912 
1153.451649  	83.888055 
1154.416074  	84.121788 
1155.380498  	84.318546 
1156.344923  	84.510525 
1157.309347  	84.637397 
1158.273772  	84.704109 
1159.238196  	84.717825 
1160.202621  	84.708623 
1161.167045  	84.719121 
1162.131469  	84.641256 
1163.095894  	84.484334 
1164.060318  	84.357572 
1165.024743  	84.196475 
1165.989167  	84.003624 
1166.953592  	83.792235 
1167.918016  	83.533581 
1168.882441  	83.242990 
1169.846865  	82.872629 
1170.811290  	82.436455 
1171.775714  	82.003192 
1172.740138  	81.520929 
1173.704563  	80.935971 
1174.668987  	80.291707 
1175.633412  	79.725937 
1176.597836  	79.243730 
1177.562261  	78.803575 
1178.526685  	78.475435 
1179.491110  	78.361166 
1180.455534  	78.379830 
1181.419959  	78.516716 
1182.384383  	78.705660 
1183.348808  	78.879664 
1184.313232  	79.082145 
1185.277656  	79.259881 
1186.242081  	79.323240 
1187.206505  	79.291938 
1188.170930  	79.131408 
1189.135354  	78.841125 
1190.099779  	78.458000 
1191.064203  	77.960484 
