##TITLE=No Description
##DATA TYPE=INFRARED SPECTRUM
##XUNITS=1/CM
##YUNITS=%T
400.236149  	135.362792 
401.200574  	122.664267 
402.164998  	89.970370 
403.129423  	80.682446 
404.093847  	87.362966 
405.058272  	83.730198 
406.022696  	82.843584 
406.987120  	89.121685 
407.951545  	89.203956 
408.915969  	83.631585 
409.880394  	76.714408 
410.844818  	75.325431 
411.809243  	84.354057 
412.773667  	90.394596 
413.738092  	87.794153 
414.702516  	79.945513 
415.666941  	78.275456 
416.631365  	86.375362 
417.595789  	86.902798 
418.560214  	85.169866 
419.524638  	83.303225 
420.489063  	85.165888 
421.453487  	83.772109 
422.417912  	83.766446 
423.382336  	83.964365 
424.346761  	81.384740 
425.311185  	76.717990 
426.275610  	78.748574 
427.240034  	79.425273 
428.204458  	80.147959 
429.168883  	81.118821 
430.133307  	81.350445 
431.097732  	80.319753 
432.062156  	78.856225 
433.026581  	78.351251 
433.991005  	79.635434 
434.955430  	80.852529 
435.919854  	79.635976 
436.884279  	78.007674 
437.848703  	78.588387 
438.813127  	79.281903 
439.777552  	78.999279 
440.741976  	78.715645 
441.706401  	78.512682 
442.670825  	79.132774 
443.635250  	78.584318 
444.599674  	79.288090 
445.564099  	79.145348 
446.528523  	77.639485 
447.492948  	78.401324 
448.457372  	80.111840 
449.421796  	79.589434 
450.386221  	77.879302 
451.350645  	78.100775 
452.315070  	77.769863 
453.279494  	77.213625 
454.243919  	76.991669 
455.208343  	77.268736 
456.172768  	76.249826 
457.137192  	74.535215 
458.101617  	74.762437 
459.066041  	76.931518 
460.030466  	77.250377 
460.994890  	77.260850 
461.959314  	76.650905 
462.923739  	75.919496 
463.888163  	75.739580 
464.852588  	76.192761 
465.817012  	76.551529 
466.781437  	76.720011 
467.745861  	75.773699 
468.710286  	75.858267 
469.674710  	75.467179 
470.639135  	74.874488 
471.603559  	74.476670 
472.567983  	73.914100 
473.532408  	74.599392 
474.496832  	74.875221 
475.461257  	74.844416 
476.425681  	74.718448 
477.390106  	74.622948 
478.354530  	74.570350 
479.318955  	73.920329 
480.283379  	73.540920 
481.247804  	74.285875 
482.212228  	74.136248 
483.176652  	74.768364 
484.141077  	75.358931 
485.105501  	74.607196 
486.069926  	74.064131 
487.034350  	73.945802 
487.998775  	74.058445 
488.963199  	74.112764 
489.927624  	74.737511 
490.892048  	74.735715 
491.856473  	74.057236 
492.820897  	73.502887 
493.785321  	73.242471 
494.749746  	72.615612 
495.714170  	72.491814 
496.678595  	72.676589 
497.643019  	73.058039 
498.607444  	73.133869 
499.571868  	72.176332 
500.536293  	71.860877 
501.500717  	71.379809 
502.465142  	71.316556 
503.429566  	72.128039 
504.393990  	71.906701 
505.358415  	71.386817 
506.322839  	71.061839 
507.287264  	71.047849 
508.251688  	71.242124 
509.216113  	71.713165 
510.180537  	71.320607 
511.144962  	71.012003 
512.109386  	71.028660 
513.073811  	71.091129 
514.038235  	70.900025 
515.002660  	70.582195 
515.967084  	69.882667 
516.931508  	69.526541 
517.895933  	69.630475 
518.860357  	69.768727 
519.824782  	69.742925 
520.789206  	70.005610 
521.753631  	70.084254 
522.718055  	69.993376 
523.682480  	69.654722 
524.646904  	68.998465 
525.611329  	68.436509 
526.575753  	68.352215 
527.540177  	68.816558 
528.504602  	68.881742 
529.469026  	68.489928 
530.433451  	68.090963 
531.397875  	67.981952 
532.362300  	67.935913 
533.326724  	68.007051 
534.291149  	67.862554 
535.255573  	68.174987 
536.219998  	68.643459 
537.184422  	68.814222 
538.148846  	69.033258 
539.113271  	69.468664 
540.077695  	69.594873 
541.042120  	70.147371 
542.006544  	70.702787 
542.970969  	70.603778 
543.935393  	70.555697 
544.899818  	70.349934 
545.864242  	70.216836 
546.828667  	69.919827 
547.793091  	69.266142 
548.757515  	69.196647 
549.721940  	69.662832 
550.686364  	69.432877 
551.650789  	69.471236 
552.615213  	69.151682 
553.579638  	68.745584 
554.544062  	68.540839 
555.508487  	68.539420 
556.472911  	68.274266 
557.437336  	67.940466 
558.401760  	67.531353 
559.366184  	67.569068 
560.330609  	67.537355 
561.295033  	67.262817 
562.259458  	66.490012 
563.223882  	65.653502 
564.188307  	65.186918 
565.152731  	64.883630 
566.117156  	64.242902 
567.081580  	63.700056 
568.046005  	63.364898 
569.010429  	62.733469 
569.974853  	62.142124 
570.939278  	61.798570 
571.903702  	61.295131 
572.868127  	60.645052 
573.832551  	59.989424 
574.796976  	59.684411 
575.761400  	59.126219 
576.725825  	59.098246 
577.690249  	59.319721 
578.654674  	59.598975 
579.619098  	60.043026 
580.583523  	60.686750 
581.547947  	61.655168 
582.512371  	62.604265 
583.476796  	63.402412 
584.441220  	64.305409 
585.405645  	65.283620 
586.370069  	66.516087 
587.334494  	66.995569 
588.298918  	67.388861 
589.263343  	68.049655 
590.227767  	68.758210 
591.192192  	68.952765 
592.156616  	69.192315 
593.121040  	69.795299 
594.085465  	70.242864 
595.049889  	70.523402 
596.014314  	70.713976 
596.978738  	70.779431 
597.943163  	70.982500 
598.907587  	71.131237 
599.872012  	70.951892 
600.836436  	71.173127 
601.800861  	71.626384 
602.765285  	71.759549 
603.729709  	71.845768 
604.694134  	71.819248 
605.658558  	71.873718 
606.622983  	72.055041 
607.587407  	72.030514 
608.551832  	72.108879 
609.516256  	72.289058 
610.480681  	72.369842 
611.445105  	72.347867 
612.409530  	72.190001 
613.373954  	72.188734 
614.338378  	71.968031 
615.302803  	71.924180 
616.267227  	72.107841 
617.231652  	72.510052 
618.196076  	72.575258 
619.160501  	72.265501 
620.124925  	72.044803 
621.089350  	72.133882 
622.053774  	72.174641 
623.018199  	72.482839 
623.982623  	72.394671 
624.947047  	72.400261 
625.911472  	72.238984 
626.875896  	72.168973 
627.840321  	72.185680 
628.804745  	72.439311 
629.769170  	72.379211 
630.733594  	72.181703 
631.698019  	72.182060 
632.662443  	72.007601 
633.626868  	71.788003 
634.591292  	71.854556 
635.555717  	71.781174 
636.520141  	71.852702 
637.484565  	71.713568 
638.448990  	71.756228 
639.413414  	71.656486 
640.377839  	71.549444 
641.342263  	71.441290 
642.306688  	71.200589 
643.271112  	71.065830 
644.235537  	70.955342 
645.199961  	70.782552 
646.164386  	70.735117 
647.128810  	70.527307 
648.093234  	70.319210 
649.057659  	70.244978 
650.022083  	70.130373 
650.986508  	69.846443 
651.950932  	69.522386 
652.915357  	69.321005 
653.879781  	69.147435 
654.844206  	68.952251 
655.808630  	68.739947 
656.773055  	68.418591 
657.737479  	68.234439 
658.701903  	67.850791 
659.666328  	67.528927 
660.630752  	67.326012 
661.595177  	67.070936 
662.559601  	66.811593 
663.524026  	66.508062 
664.488450  	66.224300 
665.452875  	65.995044 
666.417299  	65.726266 
667.381724  	65.309709 
668.346148  	64.882291 
669.310572  	64.541558 
670.274997  	64.349721 
671.239421  	64.306203 
672.203846  	64.117523 
673.168270  	63.833840 
674.132695  	63.341064 
675.097119  	63.065850 
676.061544  	62.858004 
677.025968  	62.756304 
677.990393  	62.641337 
678.954817  	62.446602 
679.919241  	62.316775 
680.883666  	62.352551 
681.848090  	62.232190 
682.812515  	62.197722 
683.776939  	62.167786 
684.741364  	62.103388 
685.705788  	62.039309 
686.670213  	62.287360 
687.634637  	62.401498 
688.599062  	62.647290 
689.563486  	62.970521 
690.527910  	63.442919 
691.492335  	63.965601 
692.456759  	64.582195 
693.421184  	65.020400 
694.385608  	65.497189 
695.350033  	65.972909 
696.314457  	66.375780 
697.278882  	66.754992 
698.243306  	67.264395 
699.207731  	67.800585 
700.172155  	68.242124 
701.136580  	68.626190 
702.101004  	68.849410 
703.065428  	69.107665 
704.029853  	69.504409 
704.994277  	69.846727 
705.958702  	70.180116 
706.923126  	70.404613 
707.887551  	70.661679 
708.851975  	70.945552 
709.816400  	71.099514 
710.780824  	71.304163 
711.745249  	71.540091 
712.709673  	71.732884 
713.674097  	71.864095 
714.638522  	71.969112 
715.602946  	71.996905 
716.567371  	71.905871 
717.531795  	72.020890 
718.496220  	72.088698 
719.460644  	72.024912 
720.425069  	72.040188 
721.389493  	72.163378 
722.353918  	72.243178 
723.318342  	72.244794 
724.282766  	72.168174 
725.247191  	72.015753 
726.211615  	71.950220 
727.176040  	72.039210 
728.140464  	71.967344 
729.104889  	71.936772 
730.069313  	72.116191 
731.033738  	72.611228 
731.998162  	73.227117 
732.962587  	73.963774 
733.927011  	74.752327 
734.891435  	75.425981 
735.855860  	76.116082 
736.820284  	76.874456 
737.784709  	77.592651 
738.749133  	78.137400 
739.713558  	78.626473 
740.677982  	79.086687 
741.642407  	79.364916 
742.606831  	79.669728 
743.571256  	80.003343 
744.535680  	80.200428 
745.500104  	80.364655 
746.464529  	80.549940 
747.428953  	80.502500 
748.393378  	80.521111 
749.357802  	80.650877 
750.322227  	80.759146 
751.286651  	80.866560 
752.251076  	80.988990 
753.215500  	81.149505 
754.179925  	81.298664 
755.144349  	81.337070 
756.108774  	81.454360 
757.073198  	81.582831 
758.037622  	81.670203 
759.002047  	81.673451 
759.966471  	81.845782 
760.930896  	81.972670 
761.895320  	82.031401 
762.859745  	82.187172 
763.824169  	82.471630 
764.788594  	82.611454 
765.753018  	82.661847 
766.717443  	82.750625 
767.681867  	82.855720 
768.646291  	82.975445 
769.610716  	83.138608 
770.575140  	83.286243 
771.539565  	83.499282 
772.503989  	83.539543 
773.468414  	83.501720 
774.432838  	83.596050 
775.397263  	83.754975 
776.361687  	83.916203 
777.326112  	84.026730 
778.290536  	83.983560 
779.254960  	84.223570 
780.219385  	84.619781 
781.183809  	84.961936 
782.148234  	84.791821 
783.112658  	84.791563 
784.077083  	84.744321 
785.041507  	84.725724 
786.005932  	84.811755 
786.970356  	84.772237 
787.934781  	84.760419 
788.899205  	84.801898 
789.863629  	84.980140 
790.828054  	85.059868 
791.792478  	85.024526 
792.756903  	84.953296 
793.721327  	84.985741 
794.685752  	84.899563 
795.650176  	84.944540 
796.614601  	85.129099 
797.579025  	85.310039 
798.543450  	85.309569 
799.507874  	85.386557 
800.472298  	85.590402 
801.436723  	85.700516 
802.401147  	85.857271 
803.365572  	86.028875 
804.329996  	86.227320 
805.294421  	86.331056 
806.258845  	86.339362 
807.223270  	86.421459 
808.187694  	86.498433 
809.152119  	86.593125 
810.116543  	86.616987 
811.080967  	86.609343 
812.045392  	86.632425 
813.009816  	86.816023 
813.974241  	86.940743 
814.938665  	87.043704 
815.903090  	87.173004 
816.867514  	87.197968 
817.831939  	87.257718 
818.796363  	87.467197 
819.760788  	87.609819 
820.725212  	87.638719 
821.689637  	87.607142 
822.654061  	87.707828 
823.618485  	87.783370 
824.582910  	87.778451 
825.547334  	87.786888 
826.511759  	87.920531 
827.476183  	88.003829 
828.440608  	88.026517 
829.405032  	87.991248 
830.369457  	88.085508 
831.333881  	88.243705 
832.298306  	88.331655 
833.262730  	88.337407 
834.227154  	88.319514 
835.191579  	88.344434 
836.156003  	88.411164 
837.120428  	88.436874 
838.084852  	88.352737 
839.049277  	88.409823 
840.013701  	88.499472 
840.978126  	88.512940 
841.942550  	88.659438 
842.906975  	88.708612 
843.871399  	88.651891 
844.835823  	88.652574 
845.800248  	88.658043 
846.764672  	88.676163 
847.729097  	88.715632 
848.693521  	88.683169 
849.657946  	88.702014 
850.622370  	88.733984 
851.586795  	88.777980 
852.551219  	88.736504 
853.515644  	88.785194 
854.480068  	88.881423 
855.444492  	88.841128 
856.408917  	88.759109 
857.373341  	88.785464 
858.337766  	88.974932 
859.302190  	89.093190 
860.266615  	89.015053 
861.231039  	89.011670 
862.195464  	89.052237 
863.159888  	89.053928 
864.124313  	89.091905 
865.088737  	89.094642 
866.053161  	89.059941 
867.017586  	89.106335 
867.982010  	89.152550 
868.946435  	89.164597 
869.910859  	89.126994 
870.875284  	89.084633 
871.839708  	89.057046 
872.804133  	89.137708 
873.768557  	89.204888 
874.732982  	89.105169 
875.697406  	89.003965 
876.661831  	88.958367 
877.626255  	88.934186 
878.590679  	88.969252 
879.555104  	88.985468 
880.519528  	88.894556 
881.483953  	88.843805 
882.448377  	88.811727 
883.412802  	88.815107 
884.377226  	88.795038 
885.341651  	88.803886 
886.306075  	88.791903 
887.270500  	88.789697 
888.234924  	88.789756 
889.199348  	88.693790 
890.163773  	88.584280 
891.128197  	88.565827 
892.092622  	88.540973 
893.057046  	88.436237 
894.021471  	88.387103 
894.985895  	88.437928 
895.950320  	88.348801 
896.914744  	88.164514 
897.879169  	88.046045 
898.843593  	87.891057 
899.808017  	87.651862 
900.772442  	87.346908 
901.736866  	86.965174 
902.701291  	86.633539 
903.665715  	86.364659 
904.630140  	86.038662 
905.594564  	85.846715 
906.558989  	85.916511 
907.523413  	86.164027 
908.487838  	86.403289 
909.452262  	86.664441 
910.416686  	86.999524 
911.381111  	87.212014 
912.345535  	87.224256 
913.309960  	87.126471 
914.274384  	86.990858 
915.238809  	86.924029 
916.203233  	86.791986 
917.167658  	86.674034 
918.132082  	86.589167 
919.096507  	86.508206 
920.060931  	86.375958 
921.025355  	86.162069 
921.989780  	85.913066 
922.954204  	85.647235 
923.918629  	85.361871 
924.883053  	85.052807 
925.847478  	84.694442 
926.811902  	84.267045 
927.776327  	83.777371 
928.740751  	83.174930 
929.705176  	82.521201 
930.669600  	81.794011 
931.634024  	81.036753 
932.598449  	80.324821 
933.562873  	79.796637 
934.527298  	79.586015 
935.491722  	79.750682 
936.456147  	80.392938 
937.420571  	81.347881 
938.384996  	82.384184 
939.349420  	83.374486 
940.313845  	84.260700 
941.278269  	85.014206 
942.242694  	85.577088 
943.207118  	85.965845 
944.171542  	86.337201 
945.135967  	86.662039 
946.100391  	86.901570 
947.064816  	87.036432 
948.029240  	87.192381 
948.993665  	87.362627 
949.958089  	87.479880 
950.922514  	87.579342 
951.886938  	87.710753 
952.851363  	87.797812 
953.815787  	87.844633 
954.780211  	87.925048 
955.744636  	88.020999 
956.709060  	88.074564 
957.673485  	88.105671 
958.637909  	88.112959 
959.602334  	88.130204 
960.566758  	88.134872 
961.531183  	88.128428 
962.495607  	88.151113 
963.460032  	88.212169 
964.424456  	88.270612 
965.388880  	88.245762 
966.353305  	88.270108 
967.317729  	88.336632 
968.282154  	88.359812 
969.246578  	88.338887 
970.211003  	88.341444 
971.175427  	88.325405 
972.139852  	88.277336 
973.104276  	88.246937 
974.068701  	88.238216 
975.033125  	88.212280 
975.997549  	88.199974 
976.961974  	88.169374 
977.926398  	88.123918 
978.890823  	88.109733 
979.855247  	88.069196 
980.819672  	88.005355 
981.784096  	87.944023 
982.748521  	87.867750 
983.712945  	87.753835 
984.677370  	87.577444 
985.641794  	87.414661 
986.606218  	87.363925 
987.570643  	87.349627 
988.535067  	87.288626 
989.499492  	87.290514 
990.463916  	87.291122 
991.428341  	87.251656 
992.392765  	87.177107 
993.357190  	87.115599 
994.321614  	87.076291 
995.286039  	87.030534 
996.250463  	86.942034 
997.214888  	86.904787 
998.179312  	86.907148 
999.143736  	86.813819 
1000.108161  	86.696392 
1001.072585  	86.670018 
1002.037010  	86.643509 
1003.001434  	86.551298 
1003.965859  	86.461248 
1004.930283  	86.418483 
1005.894708  	86.343640 
1006.859132  	86.205260 
1007.823557  	86.088818 
1008.787981  	85.993264 
1009.752405  	85.901898 
1010.716830  	85.821094 
1011.681254  	85.724729 
1012.645679  	85.687617 
1013.610103  	85.661739 
1014.574528  	85.563808 
1015.538952  	85.496836 
1016.503377  	85.516067 
1017.467801  	85.552728 
1018.432226  	85.560514 
1019.396650  	85.534807 
1020.361074  	85.529712 
1021.325499  	85.545436 
1022.289923  	85.493675 
1023.254348  	85.424652 
1024.218772  	85.356392 
1025.183197  	85.239645 
1026.147621  	85.135636 
1027.112046  	85.080473 
1028.076470  	85.044287 
1029.040895  	84.951367 
1030.005319  	84.883918 
1030.969743  	84.853171 
1031.934168  	84.828796 
1032.898592  	84.789525 
1033.863017  	84.675167 
1034.827441  	84.582125 
1035.791866  	84.527217 
1036.756290  	84.471923 
1037.720715  	84.372264 
1038.685139  	84.294966 
1039.649564  	84.293941 
1040.613988  	84.237132 
1041.578412  	84.194043 
1042.542837  	84.194563 
1043.507261  	84.247113 
1044.471686  	84.353805 
1045.436110  	84.478264 
1046.400535  	84.585281 
1047.364959  	84.666823 
1048.329384  	84.703386 
1049.293808  	84.757184 
1050.258233  	84.865991 
1051.222657  	84.935259 
1052.187081  	84.929715 
1053.151506  	84.897265 
1054.115930  	84.919336 
1055.080355  	84.900460 
1056.044779  	84.829503 
1057.009204  	84.761842 
1057.973628  	84.766849 
1058.938053  	84.756301 
1059.902477  	84.636125 
1060.866902  	84.518176 
1061.831326  	84.491877 
1062.795751  	84.503589 
1063.760175  	84.434652 
1064.724599  	84.374612 
1065.689024  	84.383746 
1066.653448  	84.463520 
1067.617873  	84.582287 
1068.582297  	84.713143 
1069.546722  	84.890295 
1070.511146  	85.120986 
1071.475571  	85.291930 
1072.439995  	85.343363 
1073.404420  	85.390299 
1074.368844  	85.448953 
1075.333268  	85.448442 
1076.297693  	85.407104 
1077.262117  	85.377609 
1078.226542  	85.426810 
1079.190966  	85.454034 
1080.155391  	85.436642 
1081.119815  	85.407261 
1082.084240  	85.309943 
1083.048664  	85.245142 
1084.013089  	85.257923 
1084.977513  	85.266348 
1085.941937  	85.145536 
1086.906362  	85.012372 
1087.870786  	84.946439 
1088.835211  	84.898237 
1089.799635  	84.788589 
1090.764060  	84.668320 
1091.728484  	84.681214 
1092.692909  	84.709714 
1093.657333  	84.634624 
1094.621758  	84.522668 
1095.586182  	84.561630 
1096.550606  	84.597698 
1097.515031  	84.584033 
1098.479455  	84.577811 
1099.443880  	84.562810 
1100.408304  	84.553385 
1101.372729  	84.570102 
1102.337153  	84.560567 
1103.301578  	84.597929 
1104.266002  	84.618944 
1105.230427  	84.621711 
1106.194851  	84.670584 
1107.159275  	84.706885 
1108.123700  	84.704868 
1109.088124  	84.659121 
1110.052549  	84.650402 
1111.016973  	84.698255 
1111.981398  	84.675895 
1112.945822  	84.671353 
1113.910247  	84.697175 
1114.874671  	84.683388 
1115.839096  	84.639353 
1116.803520  	84.639410 
1117.767945  	84.599566 
1118.732369  	84.559797 
1119.696793  	84.537898 
1120.661218  	84.469702 
1121.625642  	84.313879 
1122.590067  	84.232889 
1123.554491  	84.182225 
1124.518916  	84.088456 
1125.483340  	84.013730 
1126.447765  	83.936666 
1127.412189  	83.809718 
1128.376614  	83.662826 
1129.341038  	83.476275 
1130.305462  	83.310208 
1131.269887  	83.075321 
1132.234311  	82.717108 
1133.198736  	82.343191 
1134.163160  	81.934793 
1135.127585  	81.393822 
1136.092009  	80.830645 
1137.056434  	80.402374 
1138.020858  	80.123844 
1138.985283  	79.977369 
1139.949707  	79.960278 
1140.914131  	80.055717 
1141.878556  	80.146624 
1142.842980  	80.140955 
1143.807405  	80.150290 
1144.771829  	80.175604 
1145.736254  	80.177714 
1146.700678  	80.178404 
1147.665103  	80.209263 
1148.629527  	80.287379 
1149.593952  	80.444031 
1150.558376  	80.652367 
1151.522800  	80.837707 
1152.487225  	81.053930 
1153.451649  	81.279450 
1154.416074  	81.492403 
1155.380498  	81.666344 
1156.344923  	81.833534 
1157.309347  	81.990126 
1158.273772  	82.080727 
1159.238196  	82.084925 
1160.202621  	82.101144 
1161.167045  	82.089767 
1162.131469  	81.973354 
1163.095894  	81.826822 
1164.060318  	81.703819 
1165.024743  	81.533535 
1165.989167  	81.314859 
1166.953592  	81.124397 
1167.918016  	80.874806 
1168.882441  	80.538877 
1169.846865  	80.178375 
1170.811290  	79.744447 
1171.775714  	79.261485 
1172.740138  	78.764041 
1173.704563  	78.184136 
1174.668987  	77.499247 
1175.633412  	76.916090 
1176.597836  	76.430878 
1177.562261  	76.005488 
1178.526685  	75.713315 
1179.491110  	75.587819 
1180.455534  	75.613387 
1181.419959  	75.764714 
1182.384383  	75.968309 
1183.348808  	76.195725 
1184.313232  	76.440358 
1185.277656  	76.616343 
1186.242081  	76.667207 
1187.206505  	76.633943 
1188.170930  	76.506925 
1189.135354  	76.198371 
1190.099779  	75.733090 
1191.064203  	75.184871 
