##TITLE=No Description
##DATA TYPE=INFRARED SPECTRUM
##XUNITS=1/CM
##YUNITS=%T
400.236149  	63.895542 
401.200574  	71.293244 
402.164998  	64.691435 
403.129423  	68.614536 
404.093847  	71.049271 
405.058272  	65.863530 
406.022696  	83.493457 
406.987120  	86.861684 
407.951545  	85.874977 
408.915969  	80.281690 
409.880394  	78.352828 
410.844818  	73.212921 
411.809243  	77.699138 
412.773667  	83.295848 
413.738092  	79.386224 
414.702516  	72.730952 
415.666941  	72.133932 
416.631365  	78.192476 
417.595789  	79.490743 
418.560214  	73.396181 
419.524638  	74.094830 
420.489063  	76.063783 
421.453487  	78.589754 
422.417912  	79.158545 
423.382336  	79.051657 
424.346761  	78.266221 
425.311185  	74.000041 
426.275610  	75.433912 
427.240034  	79.384700 
428.204458  	79.194934 
429.168883  	79.078838 
430.133307  	79.571978 
431.097732  	77.931290 
432.062156  	76.216749 
433.026581  	74.977765 
433.991005  	76.499776 
434.955430  	78.410333 
435.919854  	77.281051 
436.884279  	75.715104 
437.848703  	75.970634 
438.813127  	76.840121 
439.777552  	77.077162 
440.741976  	77.211500 
441.706401  	77.288869 
442.670825  	77.571891 
443.635250  	76.885853 
444.599674  	77.461081 
445.564099  	76.448549 
446.528523  	75.073343 
447.492948  	74.506005 
448.457372  	75.442738 
449.421796  	74.857269 
450.386221  	73.615929 
451.350645  	73.923719 
452.315070  	73.562502 
453.279494  	73.390127 
454.243919  	74.484603 
455.208343  	74.049516 
456.172768  	73.889541 
457.137192  	73.705034 
458.101617  	74.043835 
459.066041  	74.048985 
460.030466  	74.557182 
460.994890  	74.367707 
461.959314  	73.178376 
462.923739  	72.911986 
463.888163  	72.141539 
464.852588  	72.055750 
465.817012  	72.626657 
466.781437  	72.812892 
467.745861  	72.473812 
468.710286  	71.917955 
469.674710  	71.649974 
470.639135  	71.441442 
471.603559  	71.137482 
472.567983  	71.597148 
473.532408  	71.665494 
474.496832  	71.644149 
475.461257  	72.273324 
476.425681  	70.997044 
477.390106  	71.021709 
478.354530  	71.502022 
479.318955  	70.476143 
480.283379  	69.857883 
481.247804  	70.973281 
482.212228  	71.051933 
483.176652  	70.850295 
484.141077  	70.917032 
485.105501  	70.321126 
486.069926  	69.784618 
487.034350  	71.015253 
487.998775  	71.230070 
488.963199  	71.124946 
489.927624  	71.296663 
490.892048  	70.617578 
491.856473  	69.867097 
492.820897  	70.051421 
493.785321  	70.499805 
494.749746  	70.322022 
495.714170  	70.155945 
496.678595  	69.878249 
497.643019  	69.949274 
498.607444  	70.374027 
499.571868  	69.903893 
500.536293  	69.364633 
501.500717  	69.256241 
502.465142  	68.755282 
503.429566  	68.663275 
504.393990  	68.713597 
505.358415  	68.596763 
506.322839  	68.229071 
507.287264  	68.159693 
508.251688  	68.714456 
509.216113  	68.832869 
510.180537  	68.321220 
511.144962  	68.430658 
512.109386  	68.680818 
513.073811  	68.519367 
514.038235  	68.381386 
515.002660  	68.017879 
515.967084  	67.529601 
516.931508  	66.680079 
517.895933  	66.823311 
518.860357  	66.990020 
519.824782  	66.735930 
520.789206  	67.179309 
521.753631  	67.431805 
522.718055  	67.466140 
523.682480  	67.039590 
524.646904  	66.432721 
525.611329  	65.760163 
526.575753  	65.957564 
527.540177  	66.259995 
528.504602  	65.903153 
529.469026  	65.504785 
530.433451  	65.295382 
531.397875  	64.921664 
532.362300  	64.944972 
533.326724  	65.302900 
534.291149  	65.451056 
535.255573  	65.693656 
536.219998  	65.934989 
537.184422  	66.488737 
538.148846  	66.475909 
539.113271  	66.691914 
540.077695  	66.984905 
541.042120  	67.554574 
542.006544  	67.811498 
542.970969  	67.649183 
543.935393  	67.480872 
544.899818  	67.372583 
545.864242  	67.347263 
546.828667  	67.296218 
547.793091  	66.899347 
548.757515  	66.783362 
549.721940  	66.801272 
550.686364  	66.474352 
551.650789  	66.551580 
552.615213  	66.229820 
553.579638  	65.984483 
554.544062  	65.925876 
555.508487  	65.913675 
556.472911  	65.541358 
557.437336  	65.042779 
558.401760  	64.752774 
559.366184  	64.457687 
560.330609  	64.207586 
561.295033  	64.052553 
562.259458  	63.743176 
563.223882  	63.163999 
564.188307  	62.686230 
565.152731  	62.486203 
566.117156  	61.981755 
567.081580  	61.243701 
568.046005  	60.864157 
569.010429  	60.447883 
569.974853  	60.022655 
570.939278  	59.528290 
571.903702  	58.965163 
572.868127  	58.318048 
573.832551  	57.818232 
574.796976  	57.493557 
575.761400  	56.864658 
576.725825  	57.036951 
577.690249  	57.447790 
578.654674  	57.815982 
579.619098  	58.111717 
580.583523  	58.351171 
581.547947  	59.390145 
582.512371  	60.632690 
583.476796  	61.434061 
584.441220  	62.141621 
585.405645  	63.242702 
586.370069  	64.275856 
587.334494  	64.641617 
588.298918  	65.177878 
589.263343  	65.729415 
590.227767  	66.136392 
591.192192  	66.267693 
592.156616  	66.451534 
593.121040  	67.027879 
594.085465  	67.445376 
595.049889  	67.746743 
596.014314  	68.054925 
596.978738  	68.386194 
597.943163  	68.430869 
598.907587  	68.424571 
599.872012  	68.378316 
600.836436  	68.730782 
601.800861  	69.061428 
602.765285  	69.080345 
603.729709  	69.309160 
604.694134  	69.569577 
605.658558  	69.652295 
606.622983  	69.599116 
607.587407  	69.540391 
608.551832  	69.591805 
609.516256  	69.710528 
610.480681  	69.626928 
611.445105  	69.580064 
612.409530  	69.640646 
613.373954  	69.824169 
614.338378  	69.689417 
615.302803  	69.377154 
616.267227  	69.384772 
617.231652  	69.736292 
618.196076  	69.803569 
619.160501  	69.730183 
620.124925  	69.615036 
621.089350  	69.641009 
622.053774  	69.726449 
623.018199  	70.101830 
623.982623  	70.026492 
624.947047  	69.960809 
625.911472  	69.847935 
626.875896  	69.864008 
627.840321  	69.796286 
628.804745  	69.795620 
629.769170  	69.717260 
630.733594  	69.600622 
631.698019  	69.622821 
632.662443  	69.721844 
633.626868  	69.578572 
634.591292  	69.558581 
635.555717  	69.396579 
636.520141  	69.626546 
637.484565  	69.546397 
638.448990  	69.452701 
639.413414  	69.333793 
640.377839  	69.205606 
641.342263  	69.113943 
642.306688  	68.866511 
643.271112  	68.788606 
644.235537  	68.695783 
645.199961  	68.554026 
646.164386  	68.537460 
647.128810  	68.417073 
648.093234  	68.188545 
649.057659  	68.020512 
650.022083  	68.010178 
650.986508  	67.874212 
651.950932  	67.574126 
652.915357  	67.265523 
653.879781  	67.007890 
654.844206  	66.879650 
655.808630  	66.719208 
656.773055  	66.341318 
657.737479  	66.066343 
658.701903  	65.682846 
659.666328  	65.401899 
660.630752  	65.209242 
661.595177  	65.011071 
662.559601  	64.780828 
663.524026  	64.456399 
664.488450  	64.201101 
665.452875  	63.950729 
666.417299  	63.759015 
667.381724  	63.707475 
668.346148  	63.217886 
669.310572  	62.616035 
670.274997  	62.421929 
671.239421  	62.339668 
672.203846  	62.384389 
673.168270  	62.219756 
674.132695  	61.787213 
675.097119  	61.570722 
676.061544  	61.461404 
677.025968  	61.399139 
677.990393  	61.291300 
678.954817  	61.073223 
679.919241  	60.997521 
680.883666  	61.096827 
681.848090  	61.039100 
682.812515  	61.040405 
683.776939  	61.039819 
684.741364  	61.091398 
685.705788  	61.180535 
686.670213  	61.370520 
687.634637  	61.443277 
688.599062  	61.626849 
689.563486  	61.862067 
690.527910  	62.219045 
691.492335  	62.627299 
692.456759  	63.104159 
693.421184  	63.561606 
694.385608  	64.057952 
695.350033  	64.529864 
696.314457  	64.960317 
697.278882  	65.392989 
698.243306  	65.855495 
699.207731  	66.250851 
700.172155  	66.605254 
701.136580  	66.901949 
702.101004  	67.215649 
703.065428  	67.555829 
704.029853  	67.864149 
704.994277  	68.216153 
705.958702  	68.642504 
706.923126  	68.935233 
707.887551  	69.157116 
708.851975  	69.451852 
709.816400  	69.578334 
710.780824  	69.671516 
711.745249  	69.797258 
712.709673  	69.953766 
713.674097  	70.051765 
714.638522  	70.152201 
715.602946  	70.272837 
716.567371  	70.274796 
717.531795  	70.196312 
718.496220  	70.076407 
719.460644  	70.031378 
720.425069  	70.234188 
721.389493  	70.542759 
722.353918  	70.668043 
723.318342  	70.718024 
724.282766  	70.683753 
725.247191  	70.643830 
726.211615  	70.647343 
727.176040  	70.648850 
728.140464  	70.516125 
729.104889  	70.462959 
730.069313  	70.700034 
731.033738  	71.270592 
731.998162  	71.958814 
732.962587  	72.715904 
733.927011  	73.500060 
734.891435  	74.251967 
735.855860  	75.026124 
736.820284  	75.704958 
737.784709  	76.305528 
738.749133  	76.952574 
739.713558  	77.457371 
740.677982  	77.870382 
741.642407  	78.232870 
742.606831  	78.533228 
743.571256  	78.766526 
744.535680  	78.870652 
745.500104  	78.975831 
746.464529  	79.051441 
747.428953  	79.199997 
748.393378  	79.390071 
749.357802  	79.445266 
750.322227  	79.457662 
751.286651  	79.521915 
752.251076  	79.722096 
753.215500  	79.891722 
754.179925  	80.005853 
755.144349  	80.123450 
756.108774  	80.239093 
757.073198  	80.241304 
758.037622  	80.229886 
759.002047  	80.327063 
759.966471  	80.521665 
760.930896  	80.626813 
761.895320  	80.733870 
762.859745  	80.988557 
763.824169  	81.179295 
764.788594  	81.240246 
765.753018  	81.244405 
766.717443  	81.289375 
767.681867  	81.422567 
768.646291  	81.570077 
769.610716  	81.734297 
770.575140  	81.885192 
771.539565  	82.064428 
772.503989  	82.054297 
773.468414  	82.078834 
774.432838  	82.263042 
775.397263  	82.452352 
776.361687  	82.627317 
777.326112  	82.800907 
778.290536  	82.666697 
779.254960  	82.563152 
780.219385  	82.557184 
781.183809  	83.024240 
782.148234  	83.078651 
783.112658  	83.127339 
784.077083  	83.286524 
785.041507  	83.366800 
786.005932  	83.570789 
786.970356  	83.583330 
787.934781  	83.487735 
788.899205  	83.511259 
789.863629  	83.561285 
790.828054  	83.638578 
791.792478  	83.674025 
792.756903  	83.665482 
793.721327  	83.764425 
794.685752  	83.719098 
795.650176  	83.763356 
796.614601  	83.909872 
797.579025  	84.018773 
798.543450  	83.947541 
799.507874  	83.975224 
800.472298  	84.324884 
801.436723  	84.587681 
802.401147  	84.622592 
803.365572  	84.740726 
804.329996  	84.856348 
805.294421  	84.908750 
806.258845  	84.988989 
807.223270  	85.171816 
808.187694  	85.271125 
809.152119  	85.333612 
810.116543  	85.375131 
811.080967  	85.452832 
812.045392  	85.480388 
813.009816  	85.496713 
813.974241  	85.562739 
814.938665  	85.698148 
815.903090  	85.787484 
816.867514  	85.841132 
817.831939  	85.892832 
818.796363  	86.041596 
819.760788  	86.207140 
820.725212  	86.304958 
821.689637  	86.313510 
822.654061  	86.387946 
823.618485  	86.482798 
824.582910  	86.501877 
825.547334  	86.436970 
826.511759  	86.445360 
827.476183  	86.538925 
828.440608  	86.661469 
829.405032  	86.686257 
830.369457  	86.707074 
831.333881  	86.864000 
832.298306  	86.988453 
833.262730  	86.951627 
834.227154  	86.934510 
835.191579  	87.027095 
836.156003  	87.120883 
837.120428  	87.085197 
838.084852  	87.036686 
839.049277  	87.047733 
840.013701  	87.124869 
840.978126  	87.155259 
841.942550  	87.202937 
842.906975  	87.211896 
843.871399  	87.196794 
844.835823  	87.221283 
845.800248  	87.272645 
846.764672  	87.275597 
847.729097  	87.390817 
848.693521  	87.415189 
849.657946  	87.413298 
850.622370  	87.493623 
851.586795  	87.480841 
852.551219  	87.381101 
853.515644  	87.439586 
854.480068  	87.517740 
855.444492  	87.421901 
856.408917  	87.373189 
857.373341  	87.398731 
858.337766  	87.458059 
859.302190  	87.545476 
860.266615  	87.582792 
861.231039  	87.577421 
862.195464  	87.551154 
863.159888  	87.539185 
864.124313  	87.575915 
865.088737  	87.600106 
866.053161  	87.575517 
867.017586  	87.523993 
867.982010  	87.469903 
868.946435  	87.438025 
869.910859  	87.394166 
870.875284  	87.292251 
871.839708  	87.206398 
872.804133  	87.168997 
873.768557  	87.142054 
874.732982  	87.053726 
875.697406  	87.013500 
876.661831  	86.989460 
877.626255  	87.020109 
878.590679  	87.095345 
879.555104  	87.115947 
880.519528  	87.128108 
881.483953  	87.080573 
882.448377  	87.039114 
883.412802  	87.095964 
884.377226  	87.159672 
885.341651  	87.166162 
886.306075  	87.105338 
887.270500  	87.017533 
888.234924  	87.073034 
889.199348  	87.029744 
890.163773  	86.909499 
891.128197  	86.890422 
892.092622  	86.846311 
893.057046  	86.689690 
894.021471  	86.613364 
894.985895  	86.614647 
895.950320  	86.491102 
896.914744  	86.289393 
897.879169  	86.130225 
898.843593  	85.960687 
899.808017  	85.767864 
900.772442  	85.511806 
901.736866  	85.134629 
902.701291  	84.813900 
903.665715  	84.574420 
904.630140  	84.341132 
905.594564  	84.162859 
906.558989  	84.213333 
907.523413  	84.495393 
908.487838  	84.777193 
909.452262  	85.037034 
910.416686  	85.310946 
911.381111  	85.454838 
912.345535  	85.426008 
913.309960  	85.373447 
914.274384  	85.311262 
915.238809  	85.274159 
916.203233  	85.152225 
917.167658  	85.018662 
918.132082  	84.919102 
919.096507  	84.787631 
920.060931  	84.636354 
921.025355  	84.471982 
921.989780  	84.230016 
922.954204  	83.983525 
923.918629  	83.691778 
924.883053  	83.417295 
925.847478  	83.095192 
926.811902  	82.640699 
927.776327  	82.110636 
928.740751  	81.575288 
929.705176  	81.015449 
930.669600  	80.314227 
931.634024  	79.546563 
932.598449  	78.898207 
933.562873  	78.451225 
934.527298  	78.304303 
935.491722  	78.473245 
936.456147  	79.049070 
937.420571  	79.976787 
938.384996  	80.918423 
939.349420  	81.762690 
940.313845  	82.559338 
941.278269  	83.244883 
942.242694  	83.762737 
943.207118  	84.131761 
944.171542  	84.425514 
945.135967  	84.664763 
946.100391  	84.848906 
947.064816  	84.995774 
948.029240  	85.149143 
948.993665  	85.277052 
949.958089  	85.336908 
950.922514  	85.383662 
951.886938  	85.501449 
952.851363  	85.542287 
953.815787  	85.530207 
954.780211  	85.581475 
955.744636  	85.658609 
956.709060  	85.667917 
957.673485  	85.652163 
958.637909  	85.645479 
959.602334  	85.649117 
960.566758  	85.655450 
961.531183  	85.628358 
962.495607  	85.571584 
963.460032  	85.562760 
964.424456  	85.566457 
965.388880  	85.514335 
966.353305  	85.490934 
967.317729  	85.510934 
968.282154  	85.455104 
969.246578  	85.356373 
970.211003  	85.316418 
971.175427  	85.254523 
972.139852  	85.159153 
973.104276  	85.085685 
974.068701  	85.018780 
975.033125  	84.935406 
975.997549  	84.819625 
976.961974  	84.664670 
977.926398  	84.533031 
978.890823  	84.412199 
979.855247  	84.264432 
980.819672  	84.104075 
981.784096  	83.933153 
982.748521  	83.785128 
983.712945  	83.625852 
984.677370  	83.471294 
985.641794  	83.343193 
986.606218  	83.252088 
987.570643  	83.191322 
988.535067  	83.181096 
989.499492  	83.214439 
990.463916  	83.176935 
991.428341  	83.073424 
992.392765  	82.940526 
993.357190  	82.795850 
994.321614  	82.694480 
995.286039  	82.581746 
996.250463  	82.481747 
997.214888  	82.366995 
998.179312  	82.293656 
999.143736  	82.220007 
1000.108161  	82.125959 
1001.072585  	82.091837 
1002.037010  	82.085312 
1003.001434  	81.997312 
1003.965859  	81.916582 
1004.930283  	81.855197 
1005.894708  	81.793586 
1006.859132  	81.703398 
1007.823557  	81.557074 
1008.787981  	81.446041 
1009.752405  	81.377846 
1010.716830  	81.284877 
1011.681254  	81.183839 
1012.645679  	81.117471 
1013.610103  	81.060205 
1014.574528  	80.972162 
1015.538952  	80.896184 
1016.503377  	80.917531 
1017.467801  	80.941762 
1018.432226  	80.906229 
1019.396650  	80.817758 
1020.361074  	80.766917 
1021.325499  	80.776814 
1022.289923  	80.719045 
1023.254348  	80.591370 
1024.218772  	80.480460 
1025.183197  	80.375191 
1026.147621  	80.260698 
1027.112046  	80.163689 
1028.076470  	80.077064 
1029.040895  	79.940104 
1030.005319  	79.815894 
1030.969743  	79.744438 
1031.934168  	79.730781 
1032.898592  	79.740711 
1033.863017  	79.673914 
1034.827441  	79.566801 
1035.791866  	79.579937 
1036.756290  	79.629873 
1037.720715  	79.653493 
1038.685139  	79.665652 
1039.649564  	79.704147 
1040.613988  	79.776825 
1041.578412  	79.788703 
1042.542837  	79.824549 
1043.507261  	79.929910 
1044.471686  	79.995391 
1045.436110  	80.032878 
1046.400535  	80.067903 
1047.364959  	80.085533 
1048.329384  	80.037195 
1049.293808  	80.007816 
1050.258233  	80.041733 
1051.222657  	80.045810 
1052.187081  	79.987955 
1053.151506  	79.953056 
1054.115930  	79.961282 
1055.080355  	79.931394 
1056.044779  	79.862466 
1057.009204  	79.818786 
1057.973628  	79.824339 
1058.938053  	79.870054 
1059.902477  	79.839205 
1060.866902  	79.814342 
1061.831326  	79.899628 
1062.795751  	79.994995 
1063.760175  	80.050147 
1064.724599  	80.133490 
1065.689024  	80.316987 
1066.653448  	80.523791 
1067.617873  	80.729265 
1068.582297  	80.969661 
1069.546722  	81.201374 
1070.511146  	81.380452 
1071.475571  	81.513890 
1072.439995  	81.659492 
1073.404420  	81.802421 
1074.368844  	81.890335 
1075.333268  	81.906060 
1076.297693  	81.890062 
1077.262117  	81.913128 
1078.226542  	81.982845 
1079.190966  	82.016126 
1080.155391  	81.983179 
1081.119815  	81.974066 
1082.084240  	81.951259 
1083.048664  	81.948301 
1084.013089  	81.974593 
1084.977513  	81.962709 
1085.941937  	81.828899 
1086.906362  	81.683737 
1087.870786  	81.634830 
1088.835211  	81.574115 
1089.799635  	81.469067 
1090.764060  	81.380512 
1091.728484  	81.357961 
1092.692909  	81.321448 
1093.657333  	81.255223 
1094.621758  	81.173879 
1095.586182  	81.153233 
1096.550606  	81.145927 
1097.515031  	81.108319 
1098.479455  	81.066143 
1099.443880  	81.039227 
1100.408304  	80.993595 
1101.372729  	80.947159 
1102.337153  	80.928028 
1103.301578  	80.916508 
1104.266002  	80.936630 
1105.230427  	80.963481 
1106.194851  	80.975111 
1107.159275  	80.999621 
1108.123700  	80.984249 
1109.088124  	80.961684 
1110.052549  	80.961633 
1111.016973  	80.952437 
1111.981398  	80.960828 
1112.945822  	80.987092 
1113.910247  	81.027632 
1114.874671  	81.120798 
1115.839096  	81.214002 
1116.803520  	81.280627 
1117.767945  	81.287004 
1118.732369  	81.313607 
1119.696793  	81.402027 
1120.661218  	81.428227 
1121.625642  	81.371499 
1122.590067  	81.333037 
1123.554491  	81.304240 
1124.518916  	81.262784 
1125.483340  	81.222823 
1126.447765  	81.209564 
1127.412189  	81.188593 
1128.376614  	81.108629 
1129.341038  	80.986402 
1130.305462  	80.853688 
1131.269887  	80.680898 
1132.234311  	80.413010 
1133.198736  	80.067631 
1134.163160  	79.694681 
1135.127585  	79.283017 
1136.092009  	78.816545 
1137.056434  	78.410317 
1138.020858  	78.183725 
1138.985283  	78.096686 
1139.949707  	78.075639 
1140.914131  	78.144602 
1141.878556  	78.240954 
1142.842980  	78.250753 
1143.807405  	78.235104 
1144.771829  	78.237425 
1145.736254  	78.219236 
1146.700678  	78.198142 
1147.665103  	78.196449 
1148.629527  	78.234457 
1149.593952  	78.355782 
1150.558376  	78.519552 
1151.522800  	78.693028 
1152.487225  	78.895251 
1153.451649  	79.056450 
1154.416074  	79.194284 
1155.380498  	79.317862 
1156.344923  	79.418275 
1157.309347  	79.494196 
1158.273772  	79.534063 
1159.238196  	79.514687 
1160.202621  	79.514497 
1161.167045  	79.498206 
1162.131469  	79.420881 
1163.095894  	79.307246 
1164.060318  	79.219666 
1165.024743  	79.146695 
1165.989167  	79.030237 
1166.953592  	78.913000 
1167.918016  	78.771797 
1168.882441  	78.584990 
1169.846865  	78.306534 
1170.811290  	77.954250 
1171.775714  	77.560697 
1172.740138  	77.130585 
1173.704563  	76.622686 
1174.668987  	76.074461 
1175.633412  	75.600690 
1176.597836  	75.189200 
1177.562261  	74.819962 
1178.526685  	74.559473 
1179.491110  	74.499913 
1180.455534  	74.580048 
1181.419959  	74.810071 
1182.384383  	75.062525 
1183.348808  	75.305412 
1184.313232  	75.536860 
1185.277656  	75.676408 
1186.242081  	75.731138 
1187.206505  	75.697350 
1188.170930  	75.581808 
1189.135354  	75.286282 
1190.099779  	74.843702 
1191.064203  	74.318139 
