##TITLE=No Description
##DATA TYPE=INFRARED SPECTRUM
##XUNITS=1/CM
##YUNITS=%T
400.236149  	143.335546 
401.200574  	113.914101 
402.164998  	92.211587 
403.129423  	90.939239 
404.093847  	91.743430 
405.058272  	80.098009 
406.022696  	78.135243 
406.987120  	74.531513 
407.951545  	76.722378 
408.915969  	88.617577 
409.880394  	90.233762 
410.844818  	90.117206 
411.809243  	95.739310 
412.773667  	91.419886 
413.738092  	79.756872 
414.702516  	70.796394 
415.666941  	71.432439 
416.631365  	79.825870 
417.595789  	89.083430 
418.560214  	89.040948 
419.524638  	77.533265 
420.489063  	78.286537 
421.453487  	83.194143 
422.417912  	84.678939 
423.382336  	81.674588 
424.346761  	80.751476 
425.311185  	77.801207 
426.275610  	79.853303 
427.240034  	80.905623 
428.204458  	80.090226 
429.168883  	80.990087 
430.133307  	82.337707 
431.097732  	80.914212 
432.062156  	78.787492 
433.026581  	78.119056 
433.991005  	79.880679 
434.955430  	81.393658 
435.919854  	79.991340 
436.884279  	78.027968 
437.848703  	78.221808 
438.813127  	78.947727 
439.777552  	78.819986 
440.741976  	77.963637 
441.706401  	78.440247 
442.670825  	79.688409 
443.635250  	78.786032 
444.599674  	78.056891 
445.564099  	79.094783 
446.528523  	78.849874 
447.492948  	78.654330 
448.457372  	79.438354 
449.421796  	78.702125 
450.386221  	77.540375 
451.350645  	77.371164 
452.315070  	76.847093 
453.279494  	76.340664 
454.243919  	76.422442 
455.208343  	76.704190 
456.172768  	76.152763 
457.137192  	75.867754 
458.101617  	76.969459 
459.066041  	77.179159 
460.030466  	77.107111 
460.994890  	76.984063 
461.959314  	76.260385 
462.923739  	75.423315 
463.888163  	75.168301 
464.852588  	75.365725 
465.817012  	75.917306 
466.781437  	75.762617 
467.745861  	74.727417 
468.710286  	74.152625 
469.674710  	74.361553 
470.639135  	74.435260 
471.603559  	74.476428 
472.567983  	74.853031 
473.532408  	74.955124 
474.496832  	74.331393 
475.461257  	74.859424 
476.425681  	74.792635 
477.390106  	75.446113 
478.354530  	75.874428 
479.318955  	74.696454 
480.283379  	74.094972 
481.247804  	74.615735 
482.212228  	74.630033 
483.176652  	74.993708 
484.141077  	74.864606 
485.105501  	74.128922 
486.069926  	73.433810 
487.034350  	73.479415 
487.998775  	73.635232 
488.963199  	74.252131 
489.927624  	74.553930 
490.892048  	73.435259 
491.856473  	72.338490 
492.820897  	72.909197 
493.785321  	73.363992 
494.749746  	73.041737 
495.714170  	72.467302 
496.678595  	72.299269 
497.643019  	72.373312 
498.607444  	72.564634 
499.571868  	72.591182 
500.536293  	72.167980 
501.500717  	71.285993 
502.465142  	70.958403 
503.429566  	71.452524 
504.393990  	71.297707 
505.358415  	71.519831 
506.322839  	71.258217 
507.287264  	70.820863 
508.251688  	71.296754 
509.216113  	71.527529 
510.180537  	70.850175 
511.144962  	70.810554 
512.109386  	71.129945 
513.073811  	71.133036 
514.038235  	71.009419 
515.002660  	70.377971 
515.967084  	69.689993 
516.931508  	69.102292 
517.895933  	69.762910 
518.860357  	69.810899 
519.824782  	69.090924 
520.789206  	69.696173 
521.753631  	70.022757 
522.718055  	69.651209 
523.682480  	69.314000 
524.646904  	69.302439 
525.611329  	68.913998 
526.575753  	68.792926 
527.540177  	69.144302 
528.504602  	68.810562 
529.469026  	68.377555 
530.433451  	68.087262 
531.397875  	68.002463 
532.362300  	68.077555 
533.326724  	68.208248 
534.291149  	67.646725 
535.255573  	67.446608 
536.219998  	67.951554 
537.184422  	68.922010 
538.148846  	69.051622 
539.113271  	69.191983 
540.077695  	69.410568 
541.042120  	70.112201 
542.006544  	70.424594 
542.970969  	70.369279 
543.935393  	70.199235 
544.899818  	70.016453 
545.864242  	70.045786 
546.828667  	69.895520 
547.793091  	69.343679 
548.757515  	69.325145 
549.721940  	69.402031 
550.686364  	69.390176 
551.650789  	69.691235 
552.615213  	69.339040 
553.579638  	69.024254 
554.544062  	68.871750 
555.508487  	68.726227 
556.472911  	68.481984 
557.437336  	67.885350 
558.401760  	67.549081 
559.366184  	67.492016 
560.330609  	67.138747 
561.295033  	66.662623 
562.259458  	66.283387 
563.223882  	65.846627 
564.188307  	65.319249 
565.152731  	64.916536 
566.117156  	64.309279 
567.081580  	63.549503 
568.046005  	63.098138 
569.010429  	62.474558 
569.974853  	61.718028 
570.939278  	61.193675 
571.903702  	60.790566 
572.868127  	60.385741 
573.832551  	59.834720 
574.796976  	59.381695 
575.761400  	58.730121 
576.725825  	58.648383 
577.690249  	59.134256 
578.654674  	59.577086 
579.619098  	59.794788 
580.583523  	60.260903 
581.547947  	61.522182 
582.512371  	62.517438 
583.476796  	63.174188 
584.441220  	63.946111 
585.405645  	64.993574 
586.370069  	66.078943 
587.334494  	66.725926 
588.298918  	67.320273 
589.263343  	67.879492 
590.227767  	68.464234 
591.192192  	68.563724 
592.156616  	68.656041 
593.121040  	69.524524 
594.085465  	70.048852 
595.049889  	70.133812 
596.014314  	70.215046 
596.978738  	70.416561 
597.943163  	70.747588 
598.907587  	70.985704 
599.872012  	70.787123 
600.836436  	70.860536 
601.800861  	71.193818 
602.765285  	71.363835 
603.729709  	71.582033 
604.694134  	71.762973 
605.658558  	71.904024 
606.622983  	71.902601 
607.587407  	71.827294 
608.551832  	71.942029 
609.516256  	72.112076 
610.480681  	72.165626 
611.445105  	72.108342 
612.409530  	72.092802 
613.373954  	72.253481 
614.338378  	72.201722 
615.302803  	71.909413 
616.267227  	71.879992 
617.231652  	72.292478 
618.196076  	72.221500 
619.160501  	72.055785 
620.124925  	72.059423 
621.089350  	72.038513 
622.053774  	72.043257 
623.018199  	72.433084 
623.982623  	72.223931 
624.947047  	71.907507 
625.911472  	71.730269 
626.875896  	72.026603 
627.840321  	72.101281 
628.804745  	72.115485 
629.769170  	71.962389 
630.733594  	71.912194 
631.698019  	71.892738 
632.662443  	71.767143 
633.626868  	71.671516 
634.591292  	71.603258 
635.555717  	71.148651 
636.520141  	71.298977 
637.484565  	71.511664 
638.448990  	71.573973 
639.413414  	71.319089 
640.377839  	71.249698 
641.342263  	71.317638 
642.306688  	71.109110 
643.271112  	70.883000 
644.235537  	70.758911 
645.199961  	70.684774 
646.164386  	70.752334 
647.128810  	70.534902 
648.093234  	70.194136 
649.057659  	69.921219 
650.022083  	69.836664 
650.986508  	69.701164 
651.950932  	69.377230 
652.915357  	69.103423 
653.879781  	68.918127 
654.844206  	68.675059 
655.808630  	68.457541 
656.773055  	68.134491 
657.737479  	67.913985 
658.701903  	67.545442 
659.666328  	67.214563 
660.630752  	66.971613 
661.595177  	66.768779 
662.559601  	66.438229 
663.524026  	66.083363 
664.488450  	65.856040 
665.452875  	65.603734 
666.417299  	65.374105 
667.381724  	65.425854 
668.346148  	65.302304 
669.310572  	64.536394 
670.274997  	63.998436 
671.239421  	63.805846 
672.203846  	63.720833 
673.168270  	63.484627 
674.132695  	63.189614 
675.097119  	62.896611 
676.061544  	62.496316 
677.025968  	62.282919 
677.990393  	62.075126 
678.954817  	61.970081 
679.919241  	61.960527 
680.883666  	61.970687 
681.848090  	61.868002 
682.812515  	61.819741 
683.776939  	61.760615 
684.741364  	61.736858 
685.705788  	61.705702 
686.670213  	61.992263 
687.634637  	62.232676 
688.599062  	62.426329 
689.563486  	62.645052 
690.527910  	63.012384 
691.492335  	63.520361 
692.456759  	64.091597 
693.421184  	64.454216 
694.385608  	65.028665 
695.350033  	65.624857 
696.314457  	66.063546 
697.278882  	66.377802 
698.243306  	66.779822 
699.207731  	67.252610 
700.172155  	67.703860 
701.136580  	68.031850 
702.101004  	68.397482 
703.065428  	68.797795 
704.029853  	69.063378 
704.994277  	69.236925 
705.958702  	69.661195 
706.923126  	70.041232 
707.887551  	70.241982 
708.851975  	70.451680 
709.816400  	70.555813 
710.780824  	70.637738 
711.745249  	70.739408 
712.709673  	70.825973 
713.674097  	70.931274 
714.638522  	71.150192 
715.602946  	71.254181 
716.567371  	71.245794 
717.531795  	71.249114 
718.496220  	71.216970 
719.460644  	71.146888 
720.425069  	71.198770 
721.389493  	71.387794 
722.353918  	71.389491 
723.318342  	71.336100 
724.282766  	71.284097 
725.247191  	71.143291 
726.211615  	71.087679 
727.176040  	71.141474 
728.140464  	71.133733 
729.104889  	71.145363 
730.069313  	71.346665 
731.033738  	71.913595 
731.998162  	72.601268 
732.962587  	73.384122 
733.927011  	74.131341 
734.891435  	74.894583 
735.855860  	75.706379 
736.820284  	76.453644 
737.784709  	77.130290 
738.749133  	77.783900 
739.713558  	78.253839 
740.677982  	78.682852 
741.642407  	79.084924 
742.606831  	79.442635 
743.571256  	79.679799 
744.535680  	79.822725 
745.500104  	80.035693 
746.464529  	80.232759 
747.428953  	80.345270 
748.393378  	80.491396 
749.357802  	80.506451 
750.322227  	80.468364 
751.286651  	80.449263 
752.251076  	80.629083 
753.215500  	80.872676 
754.179925  	80.996106 
755.144349  	81.070278 
756.108774  	81.296204 
757.073198  	81.443060 
758.037622  	81.501523 
759.002047  	81.526572 
759.966471  	81.646166 
760.930896  	81.738173 
761.895320  	81.933378 
762.859745  	82.099903 
763.824169  	82.233365 
764.788594  	82.335397 
765.753018  	82.380469 
766.717443  	82.420388 
767.681867  	82.586948 
768.646291  	82.689081 
769.610716  	82.807938 
770.575140  	82.932564 
771.539565  	83.085052 
772.503989  	83.208410 
773.468414  	83.306874 
774.432838  	83.378875 
775.397263  	83.538428 
776.361687  	83.561137 
777.326112  	83.654815 
778.290536  	83.774587 
779.254960  	84.006564 
780.219385  	84.043421 
781.183809  	84.222976 
782.148234  	84.094126 
783.112658  	84.364279 
784.077083  	84.407940 
785.041507  	84.391631 
786.005932  	84.594965 
786.970356  	84.519459 
787.934781  	84.458558 
788.899205  	84.587172 
789.863629  	84.716886 
790.828054  	84.767927 
791.792478  	84.752609 
792.756903  	84.773242 
793.721327  	84.798683 
794.685752  	84.734749 
795.650176  	84.763120 
796.614601  	84.856180 
797.579025  	85.034640 
798.543450  	85.084405 
799.507874  	85.133084 
800.472298  	85.346663 
801.436723  	85.538307 
802.401147  	85.631089 
803.365572  	85.795723 
804.329996  	85.952127 
805.294421  	86.037824 
806.258845  	86.125201 
807.223270  	86.265542 
808.187694  	86.319288 
809.152119  	86.381606 
810.116543  	86.464874 
811.080967  	86.473268 
812.045392  	86.476146 
813.009816  	86.513837 
813.974241  	86.637337 
814.938665  	86.774280 
815.903090  	86.823937 
816.867514  	86.834814 
817.831939  	86.926416 
818.796363  	87.057681 
819.760788  	87.143370 
820.725212  	87.236053 
821.689637  	87.243422 
822.654061  	87.255865 
823.618485  	87.408701 
824.582910  	87.487561 
825.547334  	87.435083 
826.511759  	87.488517 
827.476183  	87.595449 
828.440608  	87.679140 
829.405032  	87.687718 
830.369457  	87.691976 
831.333881  	87.741494 
832.298306  	87.804268 
833.262730  	87.817391 
834.227154  	87.891096 
835.191579  	87.977713 
836.156003  	87.970232 
837.120428  	87.922506 
838.084852  	87.905299 
839.049277  	87.998859 
840.013701  	88.007480 
840.978126  	88.015259 
841.942550  	88.099409 
842.906975  	88.085954 
843.871399  	87.996826 
844.835823  	87.986877 
845.800248  	88.084021 
846.764672  	88.158825 
847.729097  	88.239123 
848.693521  	88.261960 
849.657946  	88.303023 
850.622370  	88.374715 
851.586795  	88.388594 
852.551219  	88.334045 
853.515644  	88.363560 
854.480068  	88.376803 
855.444492  	88.318599 
856.408917  	88.299352 
857.373341  	88.370519 
858.337766  	88.483066 
859.302190  	88.570045 
860.266615  	88.501383 
861.231039  	88.497394 
862.195464  	88.570531 
863.159888  	88.521622 
864.124313  	88.554416 
865.088737  	88.603661 
866.053161  	88.588217 
867.017586  	88.516847 
867.982010  	88.494457 
868.946435  	88.559920 
869.910859  	88.561223 
870.875284  	88.493835 
871.839708  	88.394476 
872.804133  	88.383541 
873.768557  	88.434591 
874.732982  	88.397886 
875.697406  	88.395370 
876.661831  	88.389079 
877.626255  	88.341528 
878.590679  	88.360250 
879.555104  	88.419198 
880.519528  	88.391057 
881.483953  	88.265434 
882.448377  	88.233947 
883.412802  	88.277379 
884.377226  	88.304708 
885.341651  	88.312757 
886.306075  	88.247490 
887.270500  	88.190255 
888.234924  	88.255862 
889.199348  	88.222459 
890.163773  	88.160032 
891.128197  	88.172136 
892.092622  	88.140964 
893.057046  	88.028525 
894.021471  	88.005352 
894.985895  	87.967637 
895.950320  	87.751965 
896.914744  	87.562705 
897.879169  	87.419367 
898.843593  	87.283980 
899.808017  	87.119559 
900.772442  	86.884185 
901.736866  	86.520880 
902.701291  	86.164492 
903.665715  	85.856563 
904.630140  	85.551755 
905.594564  	85.369020 
906.558989  	85.392925 
907.523413  	85.641443 
908.487838  	85.993319 
909.452262  	86.290956 
910.416686  	86.547985 
911.381111  	86.716189 
912.345535  	86.726511 
913.309960  	86.647356 
914.274384  	86.621200 
915.238809  	86.549555 
916.203233  	86.416579 
917.167658  	86.248578 
918.132082  	86.076696 
919.096507  	85.967731 
920.060931  	85.854187 
921.025355  	85.684234 
921.989780  	85.447064 
922.954204  	85.154971 
923.918629  	84.836919 
924.883053  	84.540802 
925.847478  	84.197517 
926.811902  	83.752435 
927.776327  	83.241084 
928.740751  	82.651807 
929.705176  	82.043494 
930.669600  	81.334460 
931.634024  	80.547121 
932.598449  	79.871041 
933.562873  	79.380406 
934.527298  	79.185096 
935.491722  	79.404179 
936.456147  	80.038264 
937.420571  	80.951132 
938.384996  	81.939831 
939.349420  	82.897239 
940.313845  	83.766769 
941.278269  	84.488808 
942.242694  	85.059672 
943.207118  	85.460571 
944.171542  	85.827177 
945.135967  	86.145454 
946.100391  	86.350916 
947.064816  	86.495164 
948.029240  	86.630716 
948.993665  	86.743145 
949.958089  	86.866340 
950.922514  	87.015353 
951.886938  	87.162031 
952.851363  	87.218992 
953.815787  	87.235297 
954.780211  	87.291148 
955.744636  	87.358286 
956.709060  	87.435531 
957.673485  	87.505160 
958.637909  	87.543426 
959.602334  	87.587236 
960.566758  	87.609980 
961.531183  	87.610478 
962.495607  	87.611237 
963.460032  	87.641038 
964.424456  	87.680008 
965.388880  	87.659553 
966.353305  	87.681768 
967.317729  	87.758399 
968.282154  	87.813923 
969.246578  	87.789475 
970.211003  	87.756434 
971.175427  	87.737134 
972.139852  	87.689844 
973.104276  	87.654945 
974.068701  	87.669211 
975.033125  	87.695037 
975.997549  	87.656841 
976.961974  	87.631517 
977.926398  	87.629558 
978.890823  	87.610814 
979.855247  	87.563819 
980.819672  	87.479431 
981.784096  	87.440912 
982.748521  	87.417330 
983.712945  	87.296907 
984.677370  	87.092625 
985.641794  	86.982820 
986.606218  	86.939404 
987.570643  	86.898098 
988.535067  	86.878159 
989.499492  	86.878512 
990.463916  	86.873338 
991.428341  	86.839964 
992.392765  	86.759298 
993.357190  	86.689396 
994.321614  	86.652174 
995.286039  	86.575809 
996.250463  	86.507964 
997.214888  	86.479034 
998.179312  	86.468939 
999.143736  	86.408757 
1000.108161  	86.332975 
1001.072585  	86.278651 
1002.037010  	86.262720 
1003.001434  	86.226703 
1003.965859  	86.136775 
1004.930283  	86.025471 
1005.894708  	85.917762 
1006.859132  	85.831399 
1007.823557  	85.720047 
1008.787981  	85.587313 
1009.752405  	85.485475 
1010.716830  	85.408302 
1011.681254  	85.316939 
1012.645679  	85.274091 
1013.610103  	85.209777 
1014.574528  	85.114775 
1015.538952  	85.083178 
1016.503377  	85.080995 
1017.467801  	85.094126 
1018.432226  	85.088262 
1019.396650  	85.076031 
1020.361074  	85.085010 
1021.325499  	85.113502 
1022.289923  	85.126135 
1023.254348  	85.119573 
1024.218772  	85.122554 
1025.183197  	85.065546 
1026.147621  	84.972027 
1027.112046  	84.940283 
1028.076470  	84.879690 
1029.040895  	84.786276 
1030.005319  	84.702609 
1030.969743  	84.620122 
1031.934168  	84.606002 
1032.898592  	84.590294 
1033.863017  	84.481742 
1034.827441  	84.339700 
1035.791866  	84.267252 
1036.756290  	84.220198 
1037.720715  	84.166383 
1038.685139  	84.063547 
1039.649564  	84.014856 
1040.613988  	84.043206 
1041.578412  	84.013720 
1042.542837  	83.997523 
1043.507261  	84.098578 
1044.471686  	84.183342 
1045.436110  	84.240783 
1046.400535  	84.366608 
1047.364959  	84.458810 
1048.329384  	84.471678 
1049.293808  	84.531139 
1050.258233  	84.613997 
1051.222657  	84.655700 
1052.187081  	84.633565 
1053.151506  	84.618926 
1054.115930  	84.640015 
1055.080355  	84.610192 
1056.044779  	84.518377 
1057.009204  	84.439291 
1057.973628  	84.418832 
1058.938053  	84.411776 
1059.902477  	84.316214 
1060.866902  	84.186030 
1061.831326  	84.164869 
1062.795751  	84.141174 
1063.760175  	84.065529 
1064.724599  	84.040218 
1065.689024  	84.059744 
1066.653448  	84.146690 
1067.617873  	84.272762 
1068.582297  	84.406062 
1069.546722  	84.567421 
1070.511146  	84.745292 
1071.475571  	84.846322 
1072.439995  	84.923136 
1073.404420  	85.011145 
1074.368844  	85.045961 
1075.333268  	85.035868 
1076.297693  	85.032563 
1077.262117  	85.024913 
1078.226542  	85.032973 
1079.190966  	85.020917 
1080.155391  	84.957666 
1081.119815  	84.907391 
1082.084240  	84.865900 
1083.048664  	84.826929 
1084.013089  	84.815958 
1084.977513  	84.763488 
1085.941937  	84.618817 
1086.906362  	84.463735 
1087.870786  	84.419179 
1088.835211  	84.370620 
1089.799635  	84.252762 
1090.764060  	84.159934 
1091.728484  	84.137222 
1092.692909  	84.124921 
1093.657333  	84.036064 
1094.621758  	83.915775 
1095.586182  	83.942222 
1096.550606  	83.956926 
1097.515031  	83.921131 
1098.479455  	83.912974 
1099.443880  	83.963381 
1100.408304  	83.989440 
1101.372729  	83.962879 
1102.337153  	83.971194 
1103.301578  	84.013227 
1104.266002  	84.049031 
1105.230427  	84.061528 
1106.194851  	84.069672 
1107.159275  	84.061434 
1108.123700  	84.055802 
1109.088124  	84.049026 
1110.052549  	84.050163 
1111.016973  	84.075851 
1111.981398  	84.054781 
1112.945822  	84.071279 
1113.910247  	84.095373 
1114.874671  	84.088295 
1115.839096  	84.047831 
1116.803520  	84.007854 
1117.767945  	83.964080 
1118.732369  	83.909151 
1119.696793  	83.868324 
1120.661218  	83.787187 
1121.625642  	83.676098 
1122.590067  	83.620679 
1123.554491  	83.559835 
1124.518916  	83.459161 
1125.483340  	83.370893 
1126.447765  	83.309146 
1127.412189  	83.195915 
1128.376614  	83.024062 
1129.341038  	82.843177 
1130.305462  	82.660048 
1131.269887  	82.429072 
1132.234311  	82.102675 
1133.198736  	81.716879 
1134.163160  	81.312824 
1135.127585  	80.789637 
1136.092009  	80.224211 
1137.056434  	79.792375 
1138.020858  	79.516576 
1138.985283  	79.366866 
1139.949707  	79.321972 
1140.914131  	79.387895 
1141.878556  	79.501370 
1142.842980  	79.557130 
1143.807405  	79.588279 
1144.771829  	79.625284 
1145.736254  	79.645366 
1146.700678  	79.649180 
1147.665103  	79.710984 
1148.629527  	79.848118 
1149.593952  	80.018044 
1150.558376  	80.189827 
1151.522800  	80.412073 
1152.487225  	80.674455 
1153.451649  	80.919183 
1154.416074  	81.137935 
1155.380498  	81.315553 
1156.344923  	81.488596 
1157.309347  	81.641753 
1158.273772  	81.711575 
1159.238196  	81.695299 
1160.202621  	81.707498 
1161.167045  	81.696478 
1162.131469  	81.614413 
1163.095894  	81.475697 
1164.060318  	81.335856 
1165.024743  	81.174460 
1165.989167  	80.964057 
1166.953592  	80.720721 
1167.918016  	80.454156 
1168.882441  	80.139299 
1169.846865  	79.753501 
1170.811290  	79.318132 
1171.775714  	78.857917 
1172.740138  	78.359566 
1173.704563  	77.719407 
1174.668987  	77.006045 
1175.633412  	76.448840 
1176.597836  	75.962174 
1177.562261  	75.490712 
1178.526685  	75.158408 
1179.491110  	75.045692 
1180.455534  	75.068678 
1181.419959  	75.239843 
1182.384383  	75.463561 
1183.348808  	75.709128 
1184.313232  	75.964510 
1185.277656  	76.089285 
1186.242081  	76.108527 
1187.206505  	76.061097 
1188.170930  	75.940165 
1189.135354  	75.641293 
1190.099779  	75.167806 
1191.064203  	74.584443 
