##TITLE=No Description
##DATA TYPE=INFRARED SPECTRUM
##XUNITS=1/CM
##YUNITS=%T
400.236149  	107.171881 
401.200574  	105.561106 
402.164998  	92.759193 
403.129423  	82.906314 
404.093847  	84.414578 
405.058272  	91.601765 
406.022696  	90.311664 
406.987120  	96.087424 
407.951545  	97.819527 
408.915969  	87.424805 
409.880394  	86.773082 
410.844818  	95.328921 
411.809243  	99.597731 
412.773667  	93.047730 
413.738092  	80.841588 
414.702516  	75.696573 
415.666941  	78.701180 
416.631365  	83.535194 
417.595789  	90.268270 
418.560214  	91.244441 
419.524638  	85.837998 
420.489063  	85.931028 
421.453487  	86.111388 
422.417912  	86.583910 
423.382336  	86.141146 
424.346761  	84.172053 
425.311185  	80.007008 
426.275610  	80.579576 
427.240034  	80.318639 
428.204458  	81.272032 
429.168883  	80.843707 
430.133307  	82.018609 
431.097732  	82.917378 
432.062156  	80.670754 
433.026581  	79.535404 
433.991005  	81.826218 
434.955430  	81.726062 
435.919854  	78.980352 
436.884279  	78.081424 
437.848703  	81.470564 
438.813127  	82.285710 
439.777552  	80.091781 
440.741976  	78.892062 
441.706401  	79.809546 
442.670825  	79.854604 
443.635250  	78.931397 
444.599674  	78.770870 
445.564099  	79.596116 
446.528523  	78.803728 
447.492948  	78.593566 
448.457372  	79.925629 
449.421796  	78.470122 
450.386221  	76.840831 
451.350645  	76.653967 
452.315070  	76.007372 
453.279494  	76.440369 
454.243919  	77.319972 
455.208343  	77.450463 
456.172768  	76.666160 
457.137192  	76.069926 
458.101617  	76.290311 
459.066041  	77.211356 
460.030466  	76.996494 
460.994890  	76.583121 
461.959314  	76.848917 
462.923739  	77.362820 
463.888163  	76.590575 
464.852588  	75.775150 
465.817012  	75.953830 
466.781437  	75.776256 
467.745861  	74.642229 
468.710286  	74.411870 
469.674710  	74.015620 
470.639135  	74.024403 
471.603559  	73.434473 
472.567983  	73.493139 
473.532408  	75.296257 
474.496832  	75.325524 
475.461257  	74.430203 
476.425681  	73.945513 
477.390106  	74.481489 
478.354530  	75.057128 
479.318955  	74.538608 
480.283379  	74.132895 
481.247804  	74.775096 
482.212228  	74.574029 
483.176652  	74.993689 
484.141077  	74.836925 
485.105501  	73.771152 
486.069926  	73.196278 
487.034350  	73.259220 
487.998775  	73.382557 
488.963199  	73.645263 
489.927624  	73.650137 
490.892048  	73.123144 
491.856473  	72.789433 
492.820897  	73.475106 
493.785321  	73.480366 
494.749746  	72.785222 
495.714170  	72.724128 
496.678595  	72.586054 
497.643019  	72.740015 
498.607444  	73.008970 
499.571868  	72.900365 
500.536293  	72.736531 
501.500717  	71.927944 
502.465142  	71.152275 
503.429566  	71.463924 
504.393990  	71.727169 
505.358415  	71.940926 
506.322839  	71.411969 
507.287264  	71.057115 
508.251688  	71.434338 
509.216113  	71.601109 
510.180537  	70.876827 
511.144962  	70.728848 
512.109386  	71.017123 
513.073811  	71.025379 
514.038235  	70.745230 
515.002660  	70.131563 
515.967084  	69.780117 
516.931508  	69.705924 
517.895933  	70.099128 
518.860357  	70.107852 
519.824782  	69.366699 
520.789206  	69.383019 
521.753631  	69.832664 
522.718055  	69.874427 
523.682480  	69.615107 
524.646904  	69.158100 
525.611329  	68.282884 
526.575753  	67.926477 
527.540177  	68.259461 
528.504602  	68.433186 
529.469026  	68.196499 
530.433451  	68.106829 
531.397875  	68.078023 
532.362300  	67.845043 
533.326724  	67.932692 
534.291149  	67.955805 
535.255573  	67.818244 
536.219998  	67.998916 
537.184422  	68.745006 
538.148846  	68.922234 
539.113271  	69.215307 
540.077695  	69.520424 
541.042120  	70.033576 
542.006544  	70.165445 
542.970969  	70.129797 
543.935393  	70.001552 
544.899818  	69.890462 
545.864242  	70.139592 
546.828667  	70.104009 
547.793091  	69.736819 
548.757515  	69.888126 
549.721940  	69.801834 
550.686364  	69.327590 
551.650789  	69.378362 
552.615213  	69.038314 
553.579638  	68.917258 
554.544062  	68.761733 
555.508487  	68.636403 
556.472911  	68.133698 
557.437336  	67.472754 
558.401760  	67.439686 
559.366184  	67.456792 
560.330609  	66.909327 
561.295033  	66.507634 
562.259458  	66.278796 
563.223882  	65.861217 
564.188307  	65.298665 
565.152731  	64.970638 
566.117156  	64.471347 
567.081580  	63.722941 
568.046005  	63.128910 
569.010429  	62.517468 
569.974853  	61.999153 
570.939278  	61.493578 
571.903702  	60.992760 
572.868127  	60.530302 
573.832551  	60.041193 
574.796976  	59.657182 
575.761400  	59.092878 
576.725825  	59.299126 
577.690249  	59.682622 
578.654674  	59.934471 
579.619098  	60.208928 
580.583523  	60.489045 
581.547947  	61.452825 
582.512371  	62.624988 
583.476796  	63.425780 
584.441220  	64.251285 
585.405645  	65.250129 
586.370069  	66.260245 
587.334494  	67.028621 
588.298918  	67.777963 
589.263343  	68.172282 
590.227767  	68.568193 
591.192192  	68.739522 
592.156616  	68.885501 
593.121040  	69.474523 
594.085465  	69.818993 
595.049889  	70.010828 
596.014314  	70.383227 
596.978738  	70.653011 
597.943163  	70.868471 
598.907587  	70.978410 
599.872012  	70.881560 
600.836436  	71.066837 
601.800861  	71.332472 
602.765285  	71.364817 
603.729709  	71.418904 
604.694134  	71.560978 
605.658558  	71.811876 
606.622983  	72.018197 
607.587407  	71.922390 
608.551832  	71.879145 
609.516256  	72.012341 
610.480681  	71.972535 
611.445105  	71.992501 
612.409530  	72.078408 
613.373954  	72.153996 
614.338378  	72.110308 
615.302803  	71.978722 
616.267227  	71.939551 
617.231652  	72.165517 
618.196076  	71.955825 
619.160501  	71.547615 
620.124925  	71.555770 
621.089350  	71.975673 
622.053774  	71.893749 
623.018199  	72.013537 
623.982623  	72.020222 
624.947047  	72.035166 
625.911472  	71.981168 
626.875896  	72.246883 
627.840321  	72.254124 
628.804745  	72.266640 
629.769170  	72.147734 
630.733594  	72.049959 
631.698019  	72.094773 
632.662443  	72.173807 
633.626868  	72.060017 
634.591292  	71.824954 
635.555717  	71.469900 
636.520141  	71.726382 
637.484565  	71.744707 
638.448990  	71.598421 
639.413414  	71.437265 
640.377839  	71.462172 
641.342263  	71.356132 
642.306688  	71.140193 
643.271112  	71.082831 
644.235537  	70.966866 
645.199961  	70.863170 
646.164386  	70.842911 
647.128810  	70.644283 
648.093234  	70.409866 
649.057659  	70.145756 
650.022083  	70.090732 
650.986508  	70.043395 
651.950932  	69.759146 
652.915357  	69.455147 
653.879781  	69.273582 
654.844206  	69.139412 
655.808630  	68.923030 
656.773055  	68.559118 
657.737479  	68.357785 
658.701903  	67.977439 
659.666328  	67.590850 
660.630752  	67.342840 
661.595177  	67.197300 
662.559601  	66.860739 
663.524026  	66.482054 
664.488450  	66.176175 
665.452875  	65.972776 
666.417299  	65.857292 
667.381724  	65.928510 
668.346148  	65.197855 
669.310572  	64.745738 
670.274997  	64.751165 
671.239421  	64.567212 
672.203846  	64.322585 
673.168270  	64.088438 
674.132695  	63.634262 
675.097119  	63.362903 
676.061544  	63.194346 
677.025968  	63.094827 
677.990393  	62.830383 
678.954817  	62.703674 
679.919241  	62.664260 
680.883666  	62.700618 
681.848090  	62.608777 
682.812515  	62.484842 
683.776939  	62.480089 
684.741364  	62.623520 
685.705788  	62.643474 
686.670213  	62.771125 
687.634637  	62.911638 
688.599062  	63.079335 
689.563486  	63.427165 
690.527910  	63.858385 
691.492335  	64.201487 
692.456759  	64.683462 
693.421184  	65.109015 
694.385608  	65.608513 
695.350033  	66.055779 
696.314457  	66.505826 
697.278882  	66.835578 
698.243306  	67.178758 
699.207731  	67.585173 
700.172155  	68.078901 
701.136580  	68.440141 
702.101004  	68.766987 
703.065428  	69.077130 
704.029853  	69.391614 
704.994277  	69.714728 
705.958702  	70.084991 
706.923126  	70.360410 
707.887551  	70.494187 
708.851975  	70.773850 
709.816400  	70.971874 
710.780824  	71.118885 
711.745249  	71.250293 
712.709673  	71.327123 
713.674097  	71.411791 
714.638522  	71.609236 
715.602946  	71.772258 
716.567371  	71.740419 
717.531795  	71.771689 
718.496220  	71.823278 
719.460644  	71.680729 
720.425069  	71.660743 
721.389493  	71.854424 
722.353918  	71.942934 
723.318342  	71.932115 
724.282766  	71.865157 
725.247191  	71.779467 
726.211615  	71.690122 
727.176040  	71.633233 
728.140464  	71.568399 
729.104889  	71.687004 
730.069313  	71.953428 
731.033738  	72.459129 
731.998162  	73.079827 
732.962587  	73.809444 
733.927011  	74.529213 
734.891435  	75.282558 
735.855860  	76.067489 
736.820284  	76.921534 
737.784709  	77.696956 
738.749133  	78.305074 
739.713558  	78.748307 
740.677982  	79.140722 
741.642407  	79.447029 
742.606831  	79.843762 
743.571256  	80.069230 
744.535680  	80.168372 
745.500104  	80.415609 
746.464529  	80.560815 
747.428953  	80.551668 
748.393378  	80.767005 
749.357802  	80.978264 
750.322227  	81.056448 
751.286651  	80.993594 
752.251076  	81.089886 
753.215500  	81.261712 
754.179925  	81.377761 
755.144349  	81.531901 
756.108774  	81.724692 
757.073198  	81.764706 
758.037622  	81.803734 
759.002047  	81.787792 
759.966471  	81.845542 
760.930896  	81.982171 
761.895320  	82.088791 
762.859745  	82.358700 
763.824169  	82.581846 
764.788594  	82.687389 
765.753018  	82.795013 
766.717443  	82.924268 
767.681867  	83.028226 
768.646291  	83.034435 
769.610716  	83.168805 
770.575140  	83.396271 
771.539565  	83.615276 
772.503989  	83.591268 
773.468414  	83.663865 
774.432838  	83.859274 
775.397263  	84.025594 
776.361687  	84.132741 
777.326112  	84.265312 
778.290536  	84.267921 
779.254960  	84.278200 
780.219385  	84.358721 
781.183809  	84.832328 
782.148234  	84.763220 
783.112658  	84.930427 
784.077083  	85.092084 
785.041507  	85.148483 
786.005932  	85.283015 
786.970356  	85.110061 
787.934781  	84.955595 
788.899205  	85.061462 
789.863629  	85.245674 
790.828054  	85.362253 
791.792478  	85.299252 
792.756903  	85.203401 
793.721327  	85.233791 
794.685752  	85.209166 
795.650176  	85.298707 
796.614601  	85.506008 
797.579025  	85.704327 
798.543450  	85.638055 
799.507874  	85.641804 
800.472298  	85.928328 
801.436723  	86.232678 
802.401147  	86.306516 
803.365572  	86.385224 
804.329996  	86.552425 
805.294421  	86.677879 
806.258845  	86.736378 
807.223270  	86.819430 
808.187694  	86.891810 
809.152119  	86.971650 
810.116543  	86.982881 
811.080967  	87.007029 
812.045392  	87.116886 
813.009816  	87.227220 
813.974241  	87.312758 
814.938665  	87.414431 
815.903090  	87.453173 
816.867514  	87.442777 
817.831939  	87.540136 
818.796363  	87.713957 
819.760788  	87.828788 
820.725212  	87.891877 
821.689637  	87.918588 
822.654061  	88.042991 
823.618485  	88.176884 
824.582910  	88.238190 
825.547334  	88.187164 
826.511759  	88.197418 
827.476183  	88.281377 
828.440608  	88.373294 
829.405032  	88.388038 
830.369457  	88.368812 
831.333881  	88.429270 
832.298306  	88.584200 
833.262730  	88.619539 
834.227154  	88.609012 
835.191579  	88.689953 
836.156003  	88.819334 
837.120428  	88.850783 
838.084852  	88.710714 
839.049277  	88.695618 
840.013701  	88.792309 
840.978126  	88.784612 
841.942550  	88.825098 
842.906975  	88.882876 
843.871399  	88.881764 
844.835823  	88.830029 
845.800248  	88.893342 
846.764672  	88.995180 
847.729097  	89.079417 
848.693521  	89.049607 
849.657946  	89.089195 
850.622370  	89.159589 
851.586795  	89.162826 
852.551219  	89.045431 
853.515644  	89.063432 
854.480068  	89.220722 
855.444492  	89.228756 
856.408917  	89.239287 
857.373341  	89.303815 
858.337766  	89.342845 
859.302190  	89.351398 
860.266615  	89.382675 
861.231039  	89.396268 
862.195464  	89.422934 
863.159888  	89.410873 
864.124313  	89.391168 
865.088737  	89.374838 
866.053161  	89.384975 
867.017586  	89.383689 
867.982010  	89.400350 
868.946435  	89.441497 
869.910859  	89.427079 
870.875284  	89.289965 
871.839708  	89.269163 
872.804133  	89.370646 
873.768557  	89.386394 
874.732982  	89.286793 
875.697406  	89.221008 
876.661831  	89.186769 
877.626255  	89.186561 
878.590679  	89.255835 
879.555104  	89.320744 
880.519528  	89.305107 
881.483953  	89.260439 
882.448377  	89.195290 
883.412802  	89.177073 
884.377226  	89.195778 
885.341651  	89.218778 
886.306075  	89.140891 
887.270500  	89.098285 
888.234924  	89.151970 
889.199348  	89.126164 
890.163773  	89.060410 
891.128197  	89.064278 
892.092622  	89.063352 
893.057046  	88.948004 
894.021471  	88.868184 
894.985895  	88.851817 
895.950320  	88.702876 
896.914744  	88.500482 
897.879169  	88.375248 
898.843593  	88.286299 
899.808017  	88.116039 
900.772442  	87.828643 
901.736866  	87.456503 
902.701291  	87.092265 
903.665715  	86.754818 
904.630140  	86.465281 
905.594564  	86.273881 
906.558989  	86.346899 
907.523413  	86.601991 
908.487838  	86.844032 
909.452262  	87.127301 
910.416686  	87.414172 
911.381111  	87.582080 
912.345535  	87.609723 
913.309960  	87.587216 
914.274384  	87.526631 
915.238809  	87.402540 
916.203233  	87.279700 
917.167658  	87.195632 
918.132082  	87.083240 
919.096507  	86.970992 
920.060931  	86.855736 
921.025355  	86.682747 
921.989780  	86.458360 
922.954204  	86.165583 
923.918629  	85.830317 
924.883053  	85.552458 
925.847478  	85.236090 
926.811902  	84.817541 
927.776327  	84.321346 
928.740751  	83.744329 
929.705176  	83.130980 
930.669600  	82.418873 
931.634024  	81.649125 
932.598449  	80.937801 
933.562873  	80.423843 
934.527298  	80.215138 
935.491722  	80.414142 
936.456147  	81.028258 
937.420571  	81.963408 
938.384996  	82.947812 
939.349420  	83.876399 
940.313845  	84.705375 
941.278269  	85.417689 
942.242694  	85.990015 
943.207118  	86.379734 
944.171542  	86.710336 
945.135967  	87.012965 
946.100391  	87.205481 
947.064816  	87.365706 
948.029240  	87.555461 
948.993665  	87.687652 
949.958089  	87.795137 
950.922514  	87.902140 
951.886938  	88.039763 
952.851363  	88.090187 
953.815787  	88.069770 
954.780211  	88.135474 
955.744636  	88.258131 
956.709060  	88.307395 
957.673485  	88.318669 
958.637909  	88.330096 
959.602334  	88.344576 
960.566758  	88.372493 
961.531183  	88.367248 
962.495607  	88.354285 
963.460032  	88.417050 
964.424456  	88.447570 
965.388880  	88.380432 
966.353305  	88.357465 
967.317729  	88.422443 
968.282154  	88.447576 
969.246578  	88.398319 
970.211003  	88.395446 
971.175427  	88.388778 
972.139852  	88.323453 
973.104276  	88.265079 
974.068701  	88.274608 
975.033125  	88.246753 
975.997549  	88.174902 
976.961974  	88.086800 
977.926398  	88.049956 
978.890823  	88.013558 
979.855247  	87.921876 
980.819672  	87.810995 
981.784096  	87.720016 
982.748521  	87.661682 
983.712945  	87.524889 
984.677370  	87.354952 
985.641794  	87.258869 
986.606218  	87.180497 
987.570643  	87.107551 
988.535067  	87.081289 
989.499492  	87.101538 
990.463916  	87.081052 
991.428341  	87.018682 
992.392765  	86.928775 
993.357190  	86.820675 
994.321614  	86.737392 
995.286039  	86.668445 
996.250463  	86.625686 
997.214888  	86.559540 
998.179312  	86.495728 
999.143736  	86.423047 
1000.108161  	86.337212 
1001.072585  	86.266907 
1002.037010  	86.255212 
1003.001434  	86.182933 
1003.965859  	86.066146 
1004.930283  	86.006856 
1005.894708  	85.927363 
1006.859132  	85.789970 
1007.823557  	85.648676 
1008.787981  	85.568386 
1009.752405  	85.488610 
1010.716830  	85.368613 
1011.681254  	85.256477 
1012.645679  	85.204728 
1013.610103  	85.118485 
1014.574528  	84.984281 
1015.538952  	84.895726 
1016.503377  	84.887803 
1017.467801  	84.873894 
1018.432226  	84.842423 
1019.396650  	84.810680 
1020.361074  	84.815135 
1021.325499  	84.834872 
1022.289923  	84.795734 
1023.254348  	84.717159 
1024.218772  	84.615826 
1025.183197  	84.557470 
1026.147621  	84.531059 
1027.112046  	84.471628 
1028.076470  	84.378016 
1029.040895  	84.272166 
1030.005319  	84.181928 
1030.969743  	84.100084 
1031.934168  	84.057167 
1032.898592  	84.015651 
1033.863017  	83.968064 
1034.827441  	83.881774 
1035.791866  	83.816425 
1036.756290  	83.768284 
1037.720715  	83.709882 
1038.685139  	83.686386 
1039.649564  	83.725395 
1040.613988  	83.722165 
1041.578412  	83.694019 
1042.542837  	83.707221 
1043.507261  	83.831442 
1044.471686  	83.908709 
1045.436110  	83.919878 
1046.400535  	84.018905 
1047.364959  	84.145245 
1048.329384  	84.147461 
1049.293808  	84.156478 
1050.258233  	84.292812 
1051.222657  	84.375917 
1052.187081  	84.322454 
1053.151506  	84.292502 
1054.115930  	84.297379 
1055.080355  	84.272434 
1056.044779  	84.212280 
1057.009204  	84.149739 
1057.973628  	84.152735 
1058.938053  	84.134894 
1059.902477  	84.007912 
1060.866902  	83.914600 
1061.831326  	83.938676 
1062.795751  	83.938108 
1063.760175  	83.902516 
1064.724599  	83.894389 
1065.689024  	83.954316 
1066.653448  	84.095218 
1067.617873  	84.235377 
1068.582297  	84.355902 
1069.546722  	84.529472 
1070.511146  	84.704783 
1071.475571  	84.857157 
1072.439995  	84.988004 
1073.404420  	85.074639 
1074.368844  	85.130094 
1075.333268  	85.134399 
1076.297693  	85.120464 
1077.262117  	85.126379 
1078.226542  	85.153553 
1079.190966  	85.139357 
1080.155391  	85.080996 
1081.119815  	85.012721 
1082.084240  	84.953796 
1083.048664  	84.890078 
1084.013089  	84.889959 
1084.977513  	84.878940 
1085.941937  	84.782893 
1086.906362  	84.645221 
1087.870786  	84.566195 
1088.835211  	84.508685 
1089.799635  	84.414555 
1090.764060  	84.314724 
1091.728484  	84.305373 
1092.692909  	84.316816 
1093.657333  	84.224125 
1094.621758  	84.124873 
1095.586182  	84.148486 
1096.550606  	84.173526 
1097.515031  	84.153239 
1098.479455  	84.124420 
1099.443880  	84.129602 
1100.408304  	84.122787 
1101.372729  	84.113851 
1102.337153  	84.140602 
1103.301578  	84.168054 
1104.266002  	84.177056 
1105.230427  	84.175279 
1106.194851  	84.205127 
1107.159275  	84.259851 
1108.123700  	84.271967 
1109.088124  	84.267433 
1110.052549  	84.288471 
1111.016973  	84.298242 
1111.981398  	84.314327 
1112.945822  	84.346216 
1113.910247  	84.337206 
1114.874671  	84.332345 
1115.839096  	84.348054 
1116.803520  	84.347185 
1117.767945  	84.337329 
1118.732369  	84.330788 
1119.696793  	84.354857 
1120.661218  	84.321911 
1121.625642  	84.214916 
1122.590067  	84.164367 
1123.554491  	84.118256 
1124.518916  	84.037681 
1125.483340  	83.988910 
1126.447765  	83.946849 
1127.412189  	83.839635 
1128.376614  	83.724571 
1129.341038  	83.580072 
1130.305462  	83.411510 
1131.269887  	83.205572 
1132.234311  	82.902443 
1133.198736  	82.517907 
1134.163160  	82.088311 
1135.127585  	81.605731 
1136.092009  	81.109490 
1137.056434  	80.672109 
1138.020858  	80.389458 
1138.985283  	80.268300 
1139.949707  	80.237880 
1140.914131  	80.283076 
1141.878556  	80.369577 
1142.842980  	80.373738 
1143.807405  	80.384551 
1144.771829  	80.415364 
1145.736254  	80.399825 
1146.700678  	80.398623 
1147.665103  	80.425115 
1148.629527  	80.499626 
1149.593952  	80.647193 
1150.558376  	80.834909 
1151.522800  	81.010825 
1152.487225  	81.197642 
1153.451649  	81.403021 
1154.416074  	81.625811 
1155.380498  	81.799111 
1156.344923  	81.931190 
1157.309347  	82.056408 
1158.273772  	82.133771 
1159.238196  	82.140429 
1160.202621  	82.165370 
1161.167045  	82.160397 
1162.131469  	82.054036 
1163.095894  	81.924206 
1164.060318  	81.821802 
1165.024743  	81.688666 
1165.989167  	81.518338 
1166.953592  	81.337497 
1167.918016  	81.131352 
1168.882441  	80.866781 
1169.846865  	80.535290 
1170.811290  	80.128306 
1171.775714  	79.672816 
1172.740138  	79.189850 
1173.704563  	78.612656 
1174.668987  	77.979124 
1175.633412  	77.462016 
1176.597836  	76.995696 
1177.562261  	76.551565 
1178.526685  	76.241952 
1179.491110  	76.123378 
1180.455534  	76.176331 
1181.419959  	76.365590 
1182.384383  	76.574750 
1183.348808  	76.794757 
1184.313232  	77.035726 
1185.277656  	77.211323 
1186.242081  	77.280349 
1187.206505  	77.256226 
1188.170930  	77.149922 
1189.135354  	76.898842 
1190.099779  	76.509824 
1191.064203  	75.997437 
