##TITLE=No Description
##DATA TYPE=INFRARED SPECTRUM
##XUNITS=1/CM
##YUNITS=%T
400.236149  	91.270977 
401.200574  	81.352349 
402.164998  	73.907034 
403.129423  	79.501236 
404.093847  	100.237222 
405.058272  	90.732262 
406.022696  	75.786705 
406.987120  	67.485330 
407.951545  	80.263113 
408.915969  	87.951864 
409.880394  	82.045163 
410.844818  	86.165357 
411.809243  	98.042746 
412.773667  	95.244882 
413.738092  	89.202142 
414.702516  	80.352225 
415.666941  	79.057676 
416.631365  	83.638762 
417.595789  	86.956604 
418.560214  	88.620400 
419.524638  	83.467688 
420.489063  	84.279501 
421.453487  	84.787203 
422.417912  	85.151184 
423.382336  	83.524069 
424.346761  	83.046951 
425.311185  	83.008716 
426.275610  	83.339937 
427.240034  	82.729836 
428.204458  	83.960056 
429.168883  	85.086615 
430.133307  	85.437173 
431.097732  	83.128681 
432.062156  	80.726406 
433.026581  	79.999317 
433.991005  	80.355545 
434.955430  	81.540955 
435.919854  	82.664334 
436.884279  	81.867464 
437.848703  	80.429530 
438.813127  	81.100872 
439.777552  	81.230879 
440.741976  	81.472713 
441.706401  	81.736384 
442.670825  	80.593307 
443.635250  	79.594894 
444.599674  	80.520863 
445.564099  	81.213006 
446.528523  	80.656989 
447.492948  	80.566100 
448.457372  	80.983018 
449.421796  	79.637495 
450.386221  	78.552043 
451.350645  	78.536751 
452.315070  	78.381511 
453.279494  	78.008298 
454.243919  	78.547985 
455.208343  	78.519667 
456.172768  	77.986512 
457.137192  	76.940465 
458.101617  	76.922224 
459.066041  	78.057630 
460.030466  	78.431238 
460.994890  	78.556515 
461.959314  	77.970507 
462.923739  	77.116667 
463.888163  	76.961098 
464.852588  	77.632534 
465.817012  	77.834035 
466.781437  	77.864623 
467.745861  	77.473373 
468.710286  	76.778777 
469.674710  	75.812283 
470.639135  	75.525101 
471.603559  	75.904746 
472.567983  	76.700292 
473.532408  	76.659974 
474.496832  	75.887067 
475.461257  	75.476030 
476.425681  	75.248821 
477.390106  	76.163540 
478.354530  	76.750567 
479.318955  	75.571168 
480.283379  	74.856202 
481.247804  	75.425321 
482.212228  	75.128584 
483.176652  	75.210897 
484.141077  	75.494464 
485.105501  	75.134079 
486.069926  	74.896788 
487.034350  	75.382495 
487.998775  	75.203368 
488.963199  	75.095508 
489.927624  	75.320648 
490.892048  	74.579213 
491.856473  	73.958207 
492.820897  	74.799042 
493.785321  	75.315181 
494.749746  	74.632220 
495.714170  	74.336186 
496.678595  	74.162427 
497.643019  	74.338191 
498.607444  	74.285125 
499.571868  	73.619722 
500.536293  	73.297675 
501.500717  	72.948129 
502.465142  	72.552712 
503.429566  	72.802992 
504.393990  	72.895654 
505.358415  	73.178012 
506.322839  	72.792849 
507.287264  	72.481781 
508.251688  	72.962426 
509.216113  	73.455765 
510.180537  	72.835677 
511.144962  	72.570844 
512.109386  	72.583347 
513.073811  	72.609607 
514.038235  	72.524706 
515.002660  	72.052351 
515.967084  	71.464558 
516.931508  	70.679065 
517.895933  	70.823042 
518.860357  	71.002475 
519.824782  	70.728634 
520.789206  	71.067515 
521.753631  	71.579843 
522.718055  	71.423306 
523.682480  	71.089600 
524.646904  	70.670542 
525.611329  	70.103034 
526.575753  	69.947460 
527.540177  	70.215989 
528.504602  	70.295823 
529.469026  	69.984575 
530.433451  	69.575901 
531.397875  	69.438134 
532.362300  	69.316813 
533.326724  	69.379811 
534.291149  	69.348520 
535.255573  	69.132715 
536.219998  	69.217736 
537.184422  	70.167620 
538.148846  	70.557390 
539.113271  	70.761251 
540.077695  	70.944020 
541.042120  	71.410216 
542.006544  	71.702521 
542.970969  	71.716460 
543.935393  	71.759747 
544.899818  	71.525622 
545.864242  	71.311734 
546.828667  	71.208915 
547.793091  	70.816792 
548.757515  	70.631398 
549.721940  	70.933612 
550.686364  	71.025842 
551.650789  	71.115658 
552.615213  	70.672346 
553.579638  	70.324657 
554.544062  	70.152981 
555.508487  	69.987417 
556.472911  	69.618347 
557.437336  	69.195128 
558.401760  	68.902427 
559.366184  	68.903185 
560.330609  	68.463160 
561.295033  	68.001124 
562.259458  	67.790004 
563.223882  	67.269689 
564.188307  	66.562979 
565.152731  	66.385714 
566.117156  	65.883812 
567.081580  	65.254398 
568.046005  	64.727921 
569.010429  	64.012236 
569.974853  	63.288841 
570.939278  	62.816146 
571.903702  	62.208500 
572.868127  	61.766447 
573.832551  	61.358522 
574.796976  	60.906114 
575.761400  	60.171596 
576.725825  	60.090306 
577.690249  	60.290255 
578.654674  	60.563623 
579.619098  	60.923918 
580.583523  	61.344117 
581.547947  	62.398903 
582.512371  	63.509240 
583.476796  	64.298892 
584.441220  	65.141989 
585.405645  	65.973643 
586.370069  	67.061602 
587.334494  	67.786266 
588.298918  	68.381444 
589.263343  	69.026545 
590.227767  	69.554733 
591.192192  	69.645847 
592.156616  	69.887285 
593.121040  	70.485066 
594.085465  	70.989095 
595.049889  	71.261906 
596.014314  	71.409763 
596.978738  	71.659614 
597.943163  	71.956780 
598.907587  	72.009454 
599.872012  	71.935032 
600.836436  	72.156891 
601.800861  	72.531536 
602.765285  	72.623889 
603.729709  	72.672216 
604.694134  	72.807112 
605.658558  	72.919673 
606.622983  	72.970188 
607.587407  	73.019428 
608.551832  	73.072367 
609.516256  	73.233026 
610.480681  	73.193619 
611.445105  	73.107849 
612.409530  	73.274940 
613.373954  	73.433931 
614.338378  	73.200127 
615.302803  	73.002765 
616.267227  	72.969897 
617.231652  	73.358452 
618.196076  	73.440840 
619.160501  	73.324380 
620.124925  	73.037082 
621.089350  	73.145178 
622.053774  	73.250061 
623.018199  	73.543165 
623.982623  	73.494509 
624.947047  	73.312522 
625.911472  	73.084177 
626.875896  	73.078059 
627.840321  	73.120240 
628.804745  	73.261648 
629.769170  	73.211562 
630.733594  	73.042846 
631.698019  	73.061675 
632.662443  	73.074506 
633.626868  	72.911321 
634.591292  	72.798802 
635.555717  	72.589559 
636.520141  	72.664975 
637.484565  	72.755124 
638.448990  	72.895371 
639.413414  	72.788171 
640.377839  	72.677917 
641.342263  	72.485930 
642.306688  	72.109238 
643.271112  	72.098551 
644.235537  	72.121476 
645.199961  	71.990499 
646.164386  	71.929476 
647.128810  	71.700339 
648.093234  	71.377169 
649.057659  	71.084750 
650.022083  	71.133633 
650.986508  	70.961431 
651.950932  	70.668031 
652.915357  	70.361486 
653.879781  	70.108582 
654.844206  	70.036388 
655.808630  	69.823742 
656.773055  	69.429456 
657.737479  	69.318630 
658.701903  	68.891787 
659.666328  	68.511225 
660.630752  	68.303068 
661.595177  	68.131389 
662.559601  	67.811671 
663.524026  	67.534493 
664.488450  	67.323776 
665.452875  	67.071238 
666.417299  	66.817948 
667.381724  	66.631801 
668.346148  	65.722915 
669.310572  	65.429508 
670.274997  	65.398685 
671.239421  	65.332396 
672.203846  	65.181086 
673.168270  	64.866700 
674.132695  	64.416991 
675.097119  	64.136939 
676.061544  	63.935503 
677.025968  	63.741914 
677.990393  	63.632250 
678.954817  	63.596297 
679.919241  	63.475927 
680.883666  	63.379930 
681.848090  	63.287182 
682.812515  	63.207841 
683.776939  	63.121136 
684.741364  	63.082900 
685.705788  	63.085365 
686.670213  	63.331957 
687.634637  	63.537989 
688.599062  	63.790146 
689.563486  	64.085468 
690.527910  	64.528659 
691.492335  	64.935610 
692.456759  	65.389102 
693.421184  	65.821878 
694.385608  	66.362486 
695.350033  	66.879261 
696.314457  	67.349137 
697.278882  	67.807151 
698.243306  	68.230383 
699.207731  	68.650828 
700.172155  	69.165375 
701.136580  	69.459639 
702.101004  	69.751346 
703.065428  	70.055976 
704.029853  	70.340180 
704.994277  	70.719367 
705.958702  	71.089088 
706.923126  	71.298427 
707.887551  	71.590284 
708.851975  	71.943357 
709.816400  	71.975507 
710.780824  	72.016798 
711.745249  	72.203855 
712.709673  	72.384531 
713.674097  	72.447145 
714.638522  	72.545176 
715.602946  	72.692324 
716.567371  	72.743284 
717.531795  	72.828504 
718.496220  	72.844111 
719.460644  	72.749951 
720.425069  	72.800921 
721.389493  	72.958202 
722.353918  	72.970959 
723.318342  	72.992950 
724.282766  	72.970881 
725.247191  	72.910496 
726.211615  	72.846644 
727.176040  	72.815007 
728.140464  	72.675294 
729.104889  	72.606663 
730.069313  	72.786902 
731.033738  	73.328530 
731.998162  	73.983852 
732.962587  	74.762619 
733.927011  	75.480802 
734.891435  	76.146580 
735.855860  	76.811130 
736.820284  	77.549891 
737.784709  	78.277015 
738.749133  	78.875898 
739.713558  	79.392563 
740.677982  	79.871826 
741.642407  	80.181552 
742.606831  	80.427512 
743.571256  	80.637290 
744.535680  	80.832511 
745.500104  	81.094604 
746.464529  	81.189303 
747.428953  	81.177060 
748.393378  	81.362464 
749.357802  	81.394864 
750.322227  	81.444640 
751.286651  	81.562684 
752.251076  	81.696688 
753.215500  	81.892485 
754.179925  	82.014084 
755.144349  	82.071440 
756.108774  	82.192300 
757.073198  	82.305707 
758.037622  	82.447365 
759.002047  	82.533324 
759.966471  	82.558353 
760.930896  	82.606258 
761.895320  	82.794106 
762.859745  	83.031507 
763.824169  	83.217780 
764.788594  	83.306270 
765.753018  	83.434922 
766.717443  	83.519325 
767.681867  	83.598439 
768.646291  	83.633882 
769.610716  	83.788013 
770.575140  	83.974982 
771.539565  	84.097898 
772.503989  	84.158404 
773.468414  	84.256896 
774.432838  	84.394436 
775.397263  	84.555211 
776.361687  	84.606726 
777.326112  	84.760830 
778.290536  	84.853555 
779.254960  	84.932579 
780.219385  	85.029797 
781.183809  	85.335167 
782.148234  	85.378271 
783.112658  	85.477512 
784.077083  	85.421745 
785.041507  	85.395537 
786.005932  	85.667979 
786.970356  	85.658585 
787.934781  	85.534591 
788.899205  	85.596137 
789.863629  	85.762060 
790.828054  	85.843189 
791.792478  	85.794132 
792.756903  	85.743881 
793.721327  	85.830702 
794.685752  	85.788344 
795.650176  	85.786053 
796.614601  	85.883398 
797.579025  	86.043354 
798.543450  	86.066745 
799.507874  	86.133680 
800.472298  	86.372807 
801.436723  	86.562793 
802.401147  	86.664005 
803.365572  	86.779931 
804.329996  	86.972878 
805.294421  	87.099815 
806.258845  	87.103952 
807.223270  	87.237551 
808.187694  	87.374661 
809.152119  	87.425294 
810.116543  	87.446051 
811.080967  	87.491949 
812.045392  	87.572927 
813.009816  	87.622034 
813.974241  	87.687247 
814.938665  	87.828469 
815.903090  	87.980089 
816.867514  	88.047372 
817.831939  	88.150224 
818.796363  	88.263843 
819.760788  	88.373756 
820.725212  	88.472511 
821.689637  	88.456602 
822.654061  	88.489323 
823.618485  	88.593107 
824.582910  	88.668166 
825.547334  	88.664891 
826.511759  	88.761813 
827.476183  	88.898374 
828.440608  	88.943403 
829.405032  	88.848164 
830.369457  	88.900902 
831.333881  	89.081156 
832.298306  	89.152907 
833.262730  	89.127083 
834.227154  	89.158060 
835.191579  	89.181182 
836.156003  	89.195294 
837.120428  	89.224574 
838.084852  	89.187725 
839.049277  	89.229078 
840.013701  	89.353540 
840.978126  	89.345062 
841.942550  	89.467570 
842.906975  	89.551995 
843.871399  	89.531767 
844.835823  	89.501558 
845.800248  	89.593649 
846.764672  	89.646501 
847.729097  	89.687952 
848.693521  	89.612168 
849.657946  	89.602391 
850.622370  	89.634705 
851.586795  	89.641943 
852.551219  	89.638298 
853.515644  	89.720681 
854.480068  	89.793145 
855.444492  	89.791750 
856.408917  	89.810271 
857.373341  	89.873019 
858.337766  	89.910941 
859.302190  	89.927353 
860.266615  	89.914889 
861.231039  	89.924324 
862.195464  	89.902437 
863.159888  	89.889564 
864.124313  	89.947985 
865.088737  	89.950489 
866.053161  	89.938467 
867.017586  	89.945110 
867.982010  	89.959871 
868.946435  	90.023513 
869.910859  	90.062914 
870.875284  	90.017906 
871.839708  	89.999660 
872.804133  	90.023026 
873.768557  	90.002609 
874.732982  	89.943463 
875.697406  	89.938005 
876.661831  	89.868574 
877.626255  	89.834732 
878.590679  	89.884455 
879.555104  	89.915472 
880.519528  	89.890699 
881.483953  	89.819038 
882.448377  	89.791117 
883.412802  	89.834376 
884.377226  	89.817151 
885.341651  	89.774639 
886.306075  	89.794335 
887.270500  	89.813072 
888.234924  	89.803181 
889.199348  	89.719034 
890.163773  	89.668175 
891.128197  	89.693545 
892.092622  	89.638092 
893.057046  	89.486118 
894.021471  	89.436000 
894.985895  	89.430355 
895.950320  	89.302396 
896.914744  	89.165165 
897.879169  	89.052480 
898.843593  	88.894760 
899.808017  	88.681139 
900.772442  	88.394467 
901.736866  	88.057917 
902.701291  	87.730075 
903.665715  	87.388467 
904.630140  	87.080183 
905.594564  	86.917617 
906.558989  	86.969302 
907.523413  	87.199235 
908.487838  	87.452920 
909.452262  	87.758543 
910.416686  	88.036351 
911.381111  	88.201059 
912.345535  	88.223262 
913.309960  	88.204973 
914.274384  	88.160011 
915.238809  	88.051405 
916.203233  	87.915786 
917.167658  	87.817806 
918.132082  	87.657329 
919.096507  	87.510591 
920.060931  	87.404823 
921.025355  	87.223447 
921.989780  	86.994216 
922.954204  	86.739952 
923.918629  	86.449401 
924.883053  	86.185995 
925.847478  	85.839160 
926.811902  	85.386762 
927.776327  	84.896268 
928.740751  	84.329110 
929.705176  	83.676082 
930.669600  	82.930812 
931.634024  	82.158267 
932.598449  	81.469107 
933.562873  	80.940085 
934.527298  	80.700313 
935.491722  	80.890542 
936.456147  	81.544298 
937.420571  	82.479931 
938.384996  	83.461431 
939.349420  	84.413831 
940.313845  	85.294058 
941.278269  	86.027674 
942.242694  	86.611315 
943.207118  	87.079227 
944.171542  	87.469881 
945.135967  	87.781408 
946.100391  	88.010952 
947.064816  	88.160798 
948.029240  	88.293358 
948.993665  	88.407964 
949.958089  	88.541400 
950.922514  	88.684662 
951.886938  	88.833956 
952.851363  	88.896003 
953.815787  	88.866317 
954.780211  	88.926440 
955.744636  	89.083955 
956.709060  	89.155600 
957.673485  	89.202766 
958.637909  	89.228624 
959.602334  	89.238899 
960.566758  	89.286523 
961.531183  	89.309995 
962.495607  	89.325675 
963.460032  	89.368464 
964.424456  	89.414169 
965.388880  	89.394808 
966.353305  	89.415930 
967.317729  	89.537154 
968.282154  	89.559302 
969.246578  	89.512517 
970.211003  	89.517850 
971.175427  	89.512499 
972.139852  	89.448898 
973.104276  	89.427909 
974.068701  	89.466089 
975.033125  	89.438963 
975.997549  	89.372404 
976.961974  	89.327095 
977.926398  	89.324904 
978.890823  	89.317998 
979.855247  	89.263661 
980.819672  	89.187269 
981.784096  	89.153068 
982.748521  	89.099742 
983.712945  	88.992324 
984.677370  	88.865188 
985.641794  	88.742235 
986.606218  	88.654985 
987.570643  	88.581943 
988.535067  	88.543059 
989.499492  	88.587436 
990.463916  	88.603624 
991.428341  	88.585535 
992.392765  	88.537611 
993.357190  	88.462211 
994.321614  	88.395029 
995.286039  	88.318771 
996.250463  	88.259358 
997.214888  	88.251534 
998.179312  	88.221672 
999.143736  	88.147596 
1000.108161  	88.089702 
1001.072585  	88.068838 
1002.037010  	88.062955 
1003.001434  	87.979024 
1003.965859  	87.891171 
1004.930283  	87.822629 
1005.894708  	87.701841 
1006.859132  	87.609464 
1007.823557  	87.536418 
1008.787981  	87.472209 
1009.752405  	87.392425 
1010.716830  	87.263774 
1011.681254  	87.159484 
1012.645679  	87.137723 
1013.610103  	87.099253 
1014.574528  	87.037158 
1015.538952  	87.001756 
1016.503377  	87.023315 
1017.467801  	87.033612 
1018.432226  	87.015846 
1019.396650  	87.010322 
1020.361074  	87.008573 
1021.325499  	87.012545 
1022.289923  	86.974662 
1023.254348  	86.915704 
1024.218772  	86.836213 
1025.183197  	86.748791 
1026.147621  	86.678968 
1027.112046  	86.611002 
1028.076470  	86.544581 
1029.040895  	86.480058 
1030.005319  	86.422196 
1030.969743  	86.403791 
1031.934168  	86.374799 
1032.898592  	86.288117 
1033.863017  	86.174888 
1034.827441  	86.090118 
1035.791866  	86.011806 
1036.756290  	85.933916 
1037.720715  	85.866051 
1038.685139  	85.797177 
1039.649564  	85.782010 
1040.613988  	85.773859 
1041.578412  	85.752469 
1042.542837  	85.756033 
1043.507261  	85.863228 
1044.471686  	85.945847 
1045.436110  	85.973538 
1046.400535  	86.069922 
1047.364959  	86.168624 
1048.329384  	86.219013 
1049.293808  	86.250980 
1050.258233  	86.325200 
1051.222657  	86.382589 
1052.187081  	86.392593 
1053.151506  	86.367390 
1054.115930  	86.369962 
1055.080355  	86.381707 
1056.044779  	86.335529 
1057.009204  	86.268709 
1057.973628  	86.226280 
1058.938053  	86.202990 
1059.902477  	86.108226 
1060.866902  	85.949770 
1061.831326  	85.913959 
1062.795751  	85.955731 
1063.760175  	85.886680 
1064.724599  	85.801456 
1065.689024  	85.843218 
1066.653448  	85.962167 
1067.617873  	86.067432 
1068.582297  	86.172913 
1069.546722  	86.349057 
1070.511146  	86.570212 
1071.475571  	86.720306 
1072.439995  	86.800231 
1073.404420  	86.875438 
1074.368844  	86.925080 
1075.333268  	86.929404 
1076.297693  	86.935096 
1077.262117  	86.904460 
1078.226542  	86.906731 
1079.190966  	86.906853 
1080.155391  	86.882344 
1081.119815  	86.863273 
1082.084240  	86.835859 
1083.048664  	86.791727 
1084.013089  	86.759308 
1084.977513  	86.716031 
1085.941937  	86.602406 
1086.906362  	86.468550 
1087.870786  	86.390477 
1088.835211  	86.322166 
1089.799635  	86.218358 
1090.764060  	86.113396 
1091.728484  	86.107051 
1092.692909  	86.105130 
1093.657333  	86.031134 
1094.621758  	85.921422 
1095.586182  	85.895295 
1096.550606  	85.897835 
1097.515031  	85.885493 
1098.479455  	85.879556 
1099.443880  	85.896722 
1100.408304  	85.947890 
1101.372729  	85.958613 
1102.337153  	85.958683 
1103.301578  	85.986784 
1104.266002  	86.022372 
1105.230427  	86.040649 
1106.194851  	86.006967 
1107.159275  	86.006035 
1108.123700  	86.044037 
1109.088124  	86.070841 
1110.052549  	86.057987 
1111.016973  	86.065509 
1111.981398  	86.071628 
1112.945822  	86.055066 
1113.910247  	86.074649 
1114.874671  	86.076953 
1115.839096  	86.039365 
1116.803520  	86.009323 
1117.767945  	85.979371 
1118.732369  	85.963188 
1119.696793  	85.922346 
1120.661218  	85.844515 
1121.625642  	85.721780 
1122.590067  	85.639313 
1123.554491  	85.581367 
1124.518916  	85.460417 
1125.483340  	85.364471 
1126.447765  	85.281321 
1127.412189  	85.143173 
1128.376614  	85.000445 
1129.341038  	84.871296 
1130.305462  	84.706930 
1131.269887  	84.440119 
1132.234311  	84.096887 
1133.198736  	83.705536 
1134.163160  	83.250381 
1135.127585  	82.717272 
1136.092009  	82.186148 
1137.056434  	81.724045 
1138.020858  	81.396956 
1138.985283  	81.232097 
1139.949707  	81.201297 
1140.914131  	81.279704 
1141.878556  	81.386631 
1142.842980  	81.434787 
1143.807405  	81.451011 
1144.771829  	81.465336 
1145.736254  	81.452743 
1146.700678  	81.468009 
1147.665103  	81.511460 
1148.629527  	81.598197 
1149.593952  	81.740958 
1150.558376  	81.919703 
1151.522800  	82.125507 
1152.487225  	82.354946 
1153.451649  	82.608762 
1154.416074  	82.845781 
1155.380498  	83.004863 
1156.344923  	83.171276 
1157.309347  	83.325831 
1158.273772  	83.412428 
1159.238196  	83.416058 
1160.202621  	83.444460 
1161.167045  	83.442505 
1162.131469  	83.359270 
1163.095894  	83.225341 
1164.060318  	83.066037 
1165.024743  	82.893873 
1165.989167  	82.698854 
1166.953592  	82.505011 
1167.918016  	82.269188 
1168.882441  	81.970901 
1169.846865  	81.587169 
1170.811290  	81.150707 
1171.775714  	80.697268 
1172.740138  	80.182709 
1173.704563  	79.562490 
1174.668987  	78.908968 
1175.633412  	78.355442 
1176.597836  	77.841859 
1177.562261  	77.366584 
1178.526685  	77.030853 
1179.491110  	76.883853 
1180.455534  	76.901895 
1181.419959  	77.081932 
1182.384383  	77.290061 
1183.348808  	77.513554 
1184.313232  	77.749252 
1185.277656  	77.905202 
1186.242081  	77.975207 
1187.206505  	77.952963 
1188.170930  	77.832144 
1189.135354  	77.541877 
1190.099779  	77.088127 
1191.064203  	76.564731 
