##TITLE=No Description
##DATA TYPE=INFRARED SPECTRUM
##XUNITS=1/CM
##YUNITS=%T
400.236149  	120.884423 
401.200574  	113.282988 
402.164998  	98.820507 
403.129423  	87.303325 
404.093847  	81.388969 
405.058272  	85.132908 
406.022696  	88.393794 
406.987120  	86.731828 
407.951545  	87.090955 
408.915969  	80.953068 
409.880394  	81.262978 
410.844818  	86.380849 
411.809243  	89.976707 
412.773667  	95.313005 
413.738092  	89.810688 
414.702516  	77.568028 
415.666941  	77.258479 
416.631365  	82.175996 
417.595789  	86.977785 
418.560214  	87.369584 
419.524638  	82.531054 
420.489063  	82.565689 
421.453487  	81.261790 
422.417912  	83.665719 
423.382336  	85.727553 
424.346761  	81.920851 
425.311185  	78.220336 
426.275610  	80.295188 
427.240034  	83.470869 
428.204458  	84.047208 
429.168883  	81.515901 
430.133307  	81.861085 
431.097732  	81.611710 
432.062156  	80.213320 
433.026581  	80.804823 
433.991005  	83.006027 
434.955430  	83.204600 
435.919854  	82.247668 
436.884279  	81.143864 
437.848703  	80.520308 
438.813127  	80.629957 
439.777552  	80.081948 
440.741976  	80.554069 
441.706401  	81.596675 
442.670825  	80.086809 
443.635250  	78.735762 
444.599674  	80.579480 
445.564099  	82.167706 
446.528523  	81.712137 
447.492948  	81.084306 
448.457372  	82.203486 
449.421796  	81.596815 
450.386221  	80.483551 
451.350645  	79.546011 
452.315070  	79.046867 
453.279494  	78.421427 
454.243919  	78.718683 
455.208343  	78.683448 
456.172768  	78.097487 
457.137192  	77.957103 
458.101617  	78.308052 
459.066041  	78.532752 
460.030466  	78.987098 
460.994890  	78.842099 
461.959314  	78.353679 
462.923739  	77.651936 
463.888163  	76.961021 
464.852588  	77.441757 
465.817012  	78.331230 
466.781437  	77.740560 
467.745861  	76.844551 
468.710286  	76.871937 
469.674710  	76.341167 
470.639135  	76.267573 
471.603559  	76.608621 
472.567983  	77.129344 
473.532408  	77.440649 
474.496832  	77.135678 
475.461257  	76.211403 
476.425681  	75.450303 
477.390106  	76.411422 
478.354530  	77.545433 
479.318955  	77.302058 
480.283379  	76.513929 
481.247804  	75.982380 
482.212228  	75.586076 
483.176652  	75.985422 
484.141077  	76.508448 
485.105501  	76.090353 
486.069926  	75.402267 
487.034350  	75.577486 
487.998775  	75.640083 
488.963199  	75.621051 
489.927624  	76.167329 
490.892048  	75.446431 
491.856473  	74.494380 
492.820897  	75.093801 
493.785321  	75.255387 
494.749746  	74.714699 
495.714170  	74.244805 
496.678595  	74.137790 
497.643019  	74.064260 
498.607444  	74.536810 
499.571868  	74.488512 
500.536293  	74.080572 
501.500717  	73.577010 
502.465142  	73.021389 
503.429566  	73.824386 
504.393990  	74.004348 
505.358415  	73.481693 
506.322839  	72.505369 
507.287264  	72.224012 
508.251688  	73.107160 
509.216113  	73.482427 
510.180537  	73.037779 
511.144962  	73.045820 
512.109386  	73.320682 
513.073811  	73.260083 
514.038235  	72.911584 
515.002660  	72.745437 
515.967084  	72.323390 
516.931508  	71.716920 
517.895933  	71.545093 
518.860357  	71.552928 
519.824782  	71.105393 
520.789206  	71.284885 
521.753631  	71.835720 
522.718055  	72.046592 
523.682480  	71.657867 
524.646904  	70.832437 
525.611329  	70.476755 
526.575753  	70.338223 
527.540177  	70.491747 
528.504602  	70.463870 
529.469026  	70.025340 
530.433451  	69.711437 
531.397875  	69.678146 
532.362300  	69.498722 
533.326724  	69.362826 
534.291149  	69.157592 
535.255573  	69.181090 
536.219998  	69.350473 
537.184422  	70.107511 
538.148846  	70.493928 
539.113271  	71.055729 
540.077695  	71.454380 
541.042120  	71.863557 
542.006544  	72.095987 
542.970969  	71.774693 
543.935393  	71.903538 
544.899818  	71.929130 
545.864242  	71.969114 
546.828667  	71.842860 
547.793091  	71.313334 
548.757515  	71.137526 
549.721940  	71.359939 
550.686364  	71.173555 
551.650789  	71.245796 
552.615213  	70.739747 
553.579638  	70.645644 
554.544062  	70.550168 
555.508487  	70.348066 
556.472911  	69.970442 
557.437336  	69.720250 
558.401760  	69.579992 
559.366184  	69.157918 
560.330609  	68.473547 
561.295033  	68.123684 
562.259458  	67.884604 
563.223882  	67.542117 
564.188307  	66.863084 
565.152731  	66.412401 
566.117156  	66.015853 
567.081580  	65.453709 
568.046005  	64.885748 
569.010429  	64.318623 
569.974853  	63.859126 
570.939278  	63.361898 
571.903702  	62.574302 
572.868127  	61.982369 
573.832551  	61.404006 
574.796976  	61.142618 
575.761400  	60.707721 
576.725825  	60.614445 
577.690249  	60.810868 
578.654674  	61.034163 
579.619098  	61.320781 
580.583523  	61.929333 
581.547947  	63.005403 
582.512371  	64.109953 
583.476796  	64.949809 
584.441220  	65.758257 
585.405645  	66.645888 
586.370069  	67.828930 
587.334494  	68.622761 
588.298918  	69.210947 
589.263343  	69.671978 
590.227767  	70.228696 
591.192192  	70.419329 
592.156616  	70.664119 
593.121040  	71.217738 
594.085465  	71.529224 
595.049889  	71.711806 
596.014314  	72.079778 
596.978738  	72.307308 
597.943163  	72.539440 
598.907587  	72.553297 
599.872012  	72.498840 
600.836436  	72.811045 
601.800861  	73.210269 
602.765285  	73.311526 
603.729709  	73.312824 
604.694134  	73.336446 
605.658558  	73.513443 
606.622983  	73.591049 
607.587407  	73.561071 
608.551832  	73.578892 
609.516256  	73.725286 
610.480681  	73.789686 
611.445105  	73.704598 
612.409530  	73.767523 
613.373954  	73.897489 
614.338378  	73.690521 
615.302803  	73.509927 
616.267227  	73.650599 
617.231652  	74.110950 
618.196076  	74.118576 
619.160501  	73.933823 
620.124925  	73.709325 
621.089350  	73.729317 
622.053774  	73.683026 
623.018199  	73.914752 
623.982623  	73.838141 
624.947047  	73.796933 
625.911472  	73.616643 
626.875896  	73.522209 
627.840321  	73.597304 
628.804745  	73.703543 
629.769170  	73.697867 
630.733594  	73.542662 
631.698019  	73.556183 
632.662443  	73.567860 
633.626868  	73.434496 
634.591292  	73.399407 
635.555717  	73.075532 
636.520141  	73.082959 
637.484565  	73.197059 
638.448990  	73.169925 
639.413414  	72.984246 
640.377839  	72.948275 
641.342263  	72.946985 
642.306688  	72.652195 
643.271112  	72.486327 
644.235537  	72.483698 
645.199961  	72.311449 
646.164386  	72.262771 
647.128810  	72.126679 
648.093234  	71.830271 
649.057659  	71.592390 
650.022083  	71.411855 
650.986508  	71.300906 
651.950932  	71.157398 
652.915357  	70.846961 
653.879781  	70.660671 
654.844206  	70.455010 
655.808630  	70.161283 
656.773055  	69.734694 
657.737479  	69.507485 
658.701903  	69.310695 
659.666328  	69.004436 
660.630752  	68.717811 
661.595177  	68.523834 
662.559601  	68.251598 
663.524026  	67.871101 
664.488450  	67.546338 
665.452875  	67.264948 
666.417299  	67.072145 
667.381724  	67.204583 
668.346148  	67.370410 
669.310572  	66.541815 
670.274997  	66.007014 
671.239421  	65.662461 
672.203846  	65.444553 
673.168270  	65.248878 
674.132695  	64.968828 
675.097119  	64.788285 
676.061544  	64.519171 
677.025968  	64.260551 
677.990393  	64.011614 
678.954817  	63.861167 
679.919241  	63.777332 
680.883666  	63.684567 
681.848090  	63.585876 
682.812515  	63.620958 
683.776939  	63.578410 
684.741364  	63.566642 
685.705788  	63.576719 
686.670213  	63.790506 
687.634637  	63.995823 
688.599062  	64.266890 
689.563486  	64.576248 
690.527910  	65.045162 
691.492335  	65.419083 
692.456759  	65.792643 
693.421184  	66.201900 
694.385608  	66.853539 
695.350033  	67.458328 
696.314457  	67.837237 
697.278882  	68.140933 
698.243306  	68.584831 
699.207731  	69.087801 
700.172155  	69.494994 
701.136580  	69.715729 
702.101004  	70.047268 
703.065428  	70.459044 
704.029853  	70.831777 
704.994277  	71.145404 
705.958702  	71.592000 
706.923126  	71.862946 
707.887551  	71.988896 
708.851975  	72.218078 
709.816400  	72.328398 
710.780824  	72.472588 
711.745249  	72.680469 
712.709673  	72.845048 
713.674097  	72.959722 
714.638522  	73.095618 
715.602946  	73.172361 
716.567371  	73.218828 
717.531795  	73.292273 
718.496220  	73.316250 
719.460644  	73.304014 
720.425069  	73.340553 
721.389493  	73.390655 
722.353918  	73.416477 
723.318342  	73.425916 
724.282766  	73.374020 
725.247191  	73.300919 
726.211615  	73.235066 
727.176040  	73.180793 
728.140464  	73.103183 
729.104889  	73.092918 
730.069313  	73.236619 
731.033738  	73.754326 
731.998162  	74.432176 
732.962587  	75.195717 
733.927011  	75.960707 
734.891435  	76.611717 
735.855860  	77.330905 
736.820284  	78.134428 
737.784709  	78.767287 
738.749133  	79.286806 
739.713558  	79.806504 
740.677982  	80.197985 
741.642407  	80.475156 
742.606831  	80.831202 
743.571256  	81.122236 
744.535680  	81.262412 
745.500104  	81.440066 
746.464529  	81.610953 
747.428953  	81.704918 
748.393378  	81.795396 
749.357802  	81.868890 
750.322227  	81.948708 
751.286651  	82.029149 
752.251076  	82.140780 
753.215500  	82.341924 
754.179925  	82.455216 
755.144349  	82.475904 
756.108774  	82.548019 
757.073198  	82.665297 
758.037622  	82.784635 
759.002047  	82.846371 
759.966471  	82.910682 
760.930896  	82.984495 
761.895320  	83.120179 
762.859745  	83.329398 
763.824169  	83.493904 
764.788594  	83.562877 
765.753018  	83.607469 
766.717443  	83.754129 
767.681867  	83.908558 
768.646291  	83.982824 
769.610716  	84.128475 
770.575140  	84.292747 
771.539565  	84.451933 
772.503989  	84.429770 
773.468414  	84.551979 
774.432838  	84.696566 
775.397263  	84.740630 
776.361687  	84.815792 
777.326112  	85.003622 
778.290536  	85.139006 
779.254960  	85.428207 
780.219385  	85.646532 
781.183809  	85.501829 
782.148234  	85.152528 
783.112658  	85.331559 
784.077083  	85.644530 
785.041507  	85.822701 
786.005932  	85.914650 
786.970356  	85.897215 
787.934781  	85.874373 
788.899205  	85.909105 
789.863629  	86.033816 
790.828054  	86.133577 
791.792478  	86.143843 
792.756903  	86.194386 
793.721327  	86.268665 
794.685752  	86.138133 
795.650176  	86.151610 
796.614601  	86.289873 
797.579025  	86.412543 
798.543450  	86.384094 
799.507874  	86.493258 
800.472298  	86.766071 
801.436723  	86.926680 
802.401147  	86.968217 
803.365572  	87.116915 
804.329996  	87.294076 
805.294421  	87.370339 
806.258845  	87.431593 
807.223270  	87.571421 
808.187694  	87.625915 
809.152119  	87.628720 
810.116543  	87.669307 
811.080967  	87.743062 
812.045392  	87.797673 
813.009816  	87.905884 
813.974241  	87.949755 
814.938665  	87.993200 
815.903090  	88.141766 
816.867514  	88.227616 
817.831939  	88.335420 
818.796363  	88.443829 
819.760788  	88.516265 
820.725212  	88.579270 
821.689637  	88.642883 
822.654061  	88.715219 
823.618485  	88.761612 
824.582910  	88.844428 
825.547334  	88.854507 
826.511759  	88.842051 
827.476183  	88.901146 
828.440608  	89.011362 
829.405032  	89.016892 
830.369457  	89.025933 
831.333881  	89.120304 
832.298306  	89.250334 
833.262730  	89.298798 
834.227154  	89.350817 
835.191579  	89.458622 
836.156003  	89.498405 
837.120428  	89.461498 
838.084852  	89.386204 
839.049277  	89.422002 
840.013701  	89.421061 
840.978126  	89.369865 
841.942550  	89.468662 
842.906975  	89.544910 
843.871399  	89.559167 
844.835823  	89.550229 
845.800248  	89.558945 
846.764672  	89.573298 
847.729097  	89.643750 
848.693521  	89.667095 
849.657946  	89.704164 
850.622370  	89.713164 
851.586795  	89.715098 
852.551219  	89.680272 
853.515644  	89.751091 
854.480068  	89.790885 
855.444492  	89.722394 
856.408917  	89.718670 
857.373341  	89.795003 
858.337766  	89.861103 
859.302190  	89.900181 
860.266615  	89.906313 
861.231039  	89.950700 
862.195464  	89.956712 
863.159888  	89.916476 
864.124313  	89.921684 
865.088737  	89.980596 
866.053161  	90.034064 
867.017586  	89.992983 
867.982010  	89.984017 
868.946435  	90.038030 
869.910859  	90.033164 
870.875284  	89.963138 
871.839708  	89.922560 
872.804133  	90.001373 
873.768557  	90.054953 
874.732982  	89.934518 
875.697406  	89.866326 
876.661831  	89.816994 
877.626255  	89.790055 
878.590679  	89.875443 
879.555104  	89.882610 
880.519528  	89.811189 
881.483953  	89.761249 
882.448377  	89.742262 
883.412802  	89.720124 
884.377226  	89.725685 
885.341651  	89.708886 
886.306075  	89.669380 
887.270500  	89.676522 
888.234924  	89.719076 
889.199348  	89.616194 
890.163773  	89.542618 
891.128197  	89.579028 
892.092622  	89.536123 
893.057046  	89.389407 
894.021471  	89.318069 
894.985895  	89.276838 
895.950320  	89.128935 
896.914744  	88.980631 
897.879169  	88.893088 
898.843593  	88.780115 
899.808017  	88.620001 
900.772442  	88.330211 
901.736866  	87.950256 
902.701291  	87.581271 
903.665715  	87.220983 
904.630140  	86.959171 
905.594564  	86.818410 
906.558989  	86.826548 
907.523413  	87.039197 
908.487838  	87.345339 
909.452262  	87.673991 
910.416686  	87.962365 
911.381111  	88.090233 
912.345535  	88.087158 
913.309960  	88.082257 
914.274384  	88.024978 
915.238809  	87.951612 
916.203233  	87.830061 
917.167658  	87.711306 
918.132082  	87.596726 
919.096507  	87.464871 
920.060931  	87.322898 
921.025355  	87.133000 
921.989780  	86.887465 
922.954204  	86.620346 
923.918629  	86.333265 
924.883053  	86.036158 
925.847478  	85.686633 
926.811902  	85.227178 
927.776327  	84.747540 
928.740751  	84.186332 
929.705176  	83.547434 
930.669600  	82.808551 
931.634024  	82.022073 
932.598449  	81.326514 
933.562873  	80.839322 
934.527298  	80.653618 
935.491722  	80.827554 
936.456147  	81.455036 
937.420571  	82.392352 
938.384996  	83.413085 
939.349420  	84.369124 
940.313845  	85.253689 
941.278269  	86.019935 
942.242694  	86.592862 
943.207118  	87.024071 
944.171542  	87.389100 
945.135967  	87.657019 
946.100391  	87.852208 
947.064816  	88.024564 
948.029240  	88.145299 
948.993665  	88.264046 
949.958089  	88.407336 
950.922514  	88.569594 
951.886938  	88.745858 
952.851363  	88.809669 
953.815787  	88.815458 
954.780211  	88.876378 
955.744636  	88.971078 
956.709060  	89.041341 
957.673485  	89.076830 
958.637909  	89.103972 
959.602334  	89.110691 
960.566758  	89.152370 
961.531183  	89.179473 
962.495607  	89.182594 
963.460032  	89.223096 
964.424456  	89.266687 
965.388880  	89.272787 
966.353305  	89.283909 
967.317729  	89.337177 
968.282154  	89.352277 
969.246578  	89.361462 
970.211003  	89.378271 
971.175427  	89.354211 
972.139852  	89.313799 
973.104276  	89.295534 
974.068701  	89.310533 
975.033125  	89.307556 
975.997549  	89.273023 
976.961974  	89.230839 
977.926398  	89.186499 
978.890823  	89.161256 
979.855247  	89.117316 
980.819672  	89.066150 
981.784096  	89.018817 
982.748521  	88.964997 
983.712945  	88.872829 
984.677370  	88.711295 
985.641794  	88.587253 
986.606218  	88.515643 
987.570643  	88.451582 
988.535067  	88.433223 
989.499492  	88.477685 
990.463916  	88.497527 
991.428341  	88.480279 
992.392765  	88.388909 
993.357190  	88.277651 
994.321614  	88.232090 
995.286039  	88.200534 
996.250463  	88.143145 
997.214888  	88.062315 
998.179312  	88.049241 
999.143736  	88.015192 
1000.108161  	87.932755 
1001.072585  	87.921288 
1002.037010  	87.934912 
1003.001434  	87.866770 
1003.965859  	87.758041 
1004.930283  	87.694725 
1005.894708  	87.605130 
1006.859132  	87.491790 
1007.823557  	87.380626 
1008.787981  	87.309921 
1009.752405  	87.210858 
1010.716830  	87.104374 
1011.681254  	87.042275 
1012.645679  	87.042950 
1013.610103  	86.991495 
1014.574528  	86.892890 
1015.538952  	86.880253 
1016.503377  	86.906838 
1017.467801  	86.835955 
1018.432226  	86.791330 
1019.396650  	86.783062 
1020.361074  	86.784037 
1021.325499  	86.805862 
1022.289923  	86.742076 
1023.254348  	86.682502 
1024.218772  	86.644650 
1025.183197  	86.579786 
1026.147621  	86.476980 
1027.112046  	86.379547 
1028.076470  	86.303217 
1029.040895  	86.225704 
1030.005319  	86.137878 
1030.969743  	86.052814 
1031.934168  	86.029499 
1032.898592  	85.996332 
1033.863017  	85.924559 
1034.827441  	85.835366 
1035.791866  	85.746126 
1036.756290  	85.709610 
1037.720715  	85.659298 
1038.685139  	85.591201 
1039.649564  	85.567692 
1040.613988  	85.550653 
1041.578412  	85.500848 
1042.542837  	85.526168 
1043.507261  	85.621465 
1044.471686  	85.692469 
1045.436110  	85.740924 
1046.400535  	85.813323 
1047.364959  	85.871284 
1048.329384  	85.885503 
1049.293808  	85.941575 
1050.258233  	86.068000 
1051.222657  	86.134452 
1052.187081  	86.141943 
1053.151506  	86.138085 
1054.115930  	86.146280 
1055.080355  	86.112294 
1056.044779  	86.040048 
1057.009204  	85.998043 
1057.973628  	85.988844 
1058.938053  	85.978186 
1059.902477  	85.877980 
1060.866902  	85.754761 
1061.831326  	85.721953 
1062.795751  	85.669205 
1063.760175  	85.581202 
1064.724599  	85.570188 
1065.689024  	85.637720 
1066.653448  	85.708840 
1067.617873  	85.791936 
1068.582297  	85.947850 
1069.546722  	86.095588 
1070.511146  	86.284820 
1071.475571  	86.474610 
1072.439995  	86.555957 
1073.404420  	86.628858 
1074.368844  	86.693286 
1075.333268  	86.721906 
1076.297693  	86.714652 
1077.262117  	86.693869 
1078.226542  	86.675840 
1079.190966  	86.653072 
1080.155391  	86.596470 
1081.119815  	86.592614 
1082.084240  	86.590645 
1083.048664  	86.537293 
1084.013089  	86.493655 
1084.977513  	86.440913 
1085.941937  	86.319506 
1086.906362  	86.203103 
1087.870786  	86.130360 
1088.835211  	86.034151 
1089.799635  	85.949363 
1090.764060  	85.862673 
1091.728484  	85.848798 
1092.692909  	85.837864 
1093.657333  	85.762939 
1094.621758  	85.702196 
1095.586182  	85.699980 
1096.550606  	85.734179 
1097.515031  	85.757863 
1098.479455  	85.719349 
1099.443880  	85.702867 
1100.408304  	85.740044 
1101.372729  	85.777685 
1102.337153  	85.785282 
1103.301578  	85.808992 
1104.266002  	85.850717 
1105.230427  	85.860576 
1106.194851  	85.819549 
1107.159275  	85.843886 
1108.123700  	85.883624 
1109.088124  	85.852679 
1110.052549  	85.860021 
1111.016973  	85.887556 
1111.981398  	85.875313 
1112.945822  	85.862954 
1113.910247  	85.848840 
1114.874671  	85.812673 
1115.839096  	85.778639 
1116.803520  	85.771478 
1117.767945  	85.736707 
1118.732369  	85.680326 
1119.696793  	85.659201 
1120.661218  	85.604841 
1121.625642  	85.470120 
1122.590067  	85.399250 
1123.554491  	85.313082 
1124.518916  	85.172081 
1125.483340  	85.081223 
1126.447765  	84.994296 
1127.412189  	84.870157 
1128.376614  	84.689284 
1129.341038  	84.518305 
1130.305462  	84.353271 
1131.269887  	84.124266 
1132.234311  	83.799483 
1133.198736  	83.385507 
1134.163160  	82.928833 
1135.127585  	82.414659 
1136.092009  	81.871010 
1137.056434  	81.400552 
1138.020858  	81.118428 
1138.985283  	80.956511 
1139.949707  	80.891229 
1140.914131  	80.964194 
1141.878556  	81.094398 
1142.842980  	81.112263 
1143.807405  	81.115091 
1144.771829  	81.134987 
1145.736254  	81.127683 
1146.700678  	81.125224 
1147.665103  	81.135296 
1148.629527  	81.200956 
1149.593952  	81.333897 
1150.558376  	81.526644 
1151.522800  	81.731238 
1152.487225  	81.950465 
1153.451649  	82.161384 
1154.416074  	82.373569 
1155.380498  	82.543641 
1156.344923  	82.695497 
1157.309347  	82.839828 
1158.273772  	82.920625 
1159.238196  	82.905705 
1160.202621  	82.929854 
1161.167045  	82.918423 
1162.131469  	82.800656 
1163.095894  	82.655300 
1164.060318  	82.517674 
1165.024743  	82.369412 
1165.989167  	82.153951 
1166.953592  	81.908829 
1167.918016  	81.669097 
1168.882441  	81.354364 
1169.846865  	80.980349 
1170.811290  	80.552923 
1171.775714  	80.082911 
1172.740138  	79.604864 
1173.704563  	79.016269 
1174.668987  	78.332514 
1175.633412  	77.780023 
1176.597836  	77.298172 
1177.562261  	76.842538 
1178.526685  	76.544704 
1179.491110  	76.440872 
1180.455534  	76.468605 
1181.419959  	76.632200 
1182.384383  	76.859062 
1183.348808  	77.088281 
1184.313232  	77.301452 
1185.277656  	77.436700 
1186.242081  	77.490624 
1187.206505  	77.475273 
1188.170930  	77.339728 
1189.135354  	77.034318 
1190.099779  	76.625601 
1191.064203  	76.107411 
