##TITLE=No Description
##DATA TYPE=INFRARED SPECTRUM
##XUNITS=1/CM
##YUNITS=%T
400.236149  	120.465006 
401.200574  	103.413200 
402.164998  	79.012531 
403.129423  	74.073621 
404.093847  	91.154734 
405.058272  	102.321283 
406.022696  	100.874973 
406.987120  	77.160130 
407.951545  	80.501192 
408.915969  	84.736823 
409.880394  	79.469356 
410.844818  	89.251678 
411.809243  	94.762912 
412.773667  	88.524485 
413.738092  	80.297823 
414.702516  	70.448595 
415.666941  	74.362604 
416.631365  	86.461108 
417.595789  	96.782160 
418.560214  	95.344071 
419.524638  	88.873756 
420.489063  	82.622445 
421.453487  	79.919701 
422.417912  	78.936532 
423.382336  	79.881943 
424.346761  	79.793975 
425.311185  	76.524944 
426.275610  	77.488082 
427.240034  	78.634822 
428.204458  	79.555053 
429.168883  	80.473365 
430.133307  	80.873870 
431.097732  	78.990764 
432.062156  	76.216312 
433.026581  	76.133375 
433.991005  	77.353568 
434.955430  	77.368373 
435.919854  	76.461709 
436.884279  	77.180642 
437.848703  	77.280825 
438.813127  	76.251687 
439.777552  	76.415465 
440.741976  	77.790971 
441.706401  	77.781706 
442.670825  	78.253112 
443.635250  	77.161747 
444.599674  	76.639554 
445.564099  	77.783450 
446.528523  	77.547202 
447.492948  	76.583000 
448.457372  	77.620443 
449.421796  	76.446706 
450.386221  	74.528155 
451.350645  	75.334924 
452.315070  	75.829158 
453.279494  	75.922317 
454.243919  	75.717136 
455.208343  	75.077197 
456.172768  	74.429647 
457.137192  	74.801201 
458.101617  	74.850761 
459.066041  	75.004692 
460.030466  	75.407331 
460.994890  	74.706461 
461.959314  	74.474527 
462.923739  	74.650074 
463.888163  	74.087484 
464.852588  	73.946886 
465.817012  	74.343819 
466.781437  	74.146230 
467.745861  	73.693059 
468.710286  	73.209865 
469.674710  	72.514223 
470.639135  	72.137242 
471.603559  	71.816477 
472.567983  	72.477964 
473.532408  	73.942290 
474.496832  	73.919341 
475.461257  	74.162377 
476.425681  	73.715582 
477.390106  	73.820946 
478.354530  	73.694671 
479.318955  	72.627087 
480.283379  	72.260717 
481.247804  	73.232530 
482.212228  	72.663691 
483.176652  	72.784835 
484.141077  	73.296896 
485.105501  	72.485210 
486.069926  	71.754963 
487.034350  	72.459748 
487.998775  	72.625521 
488.963199  	72.350131 
489.927624  	72.785251 
490.892048  	72.710230 
491.856473  	71.912262 
492.820897  	72.013570 
493.785321  	71.919399 
494.749746  	71.038521 
495.714170  	70.763088 
496.678595  	71.138712 
497.643019  	71.678951 
498.607444  	71.898882 
499.571868  	71.448396 
500.536293  	71.060324 
501.500717  	70.416625 
502.465142  	70.221088 
503.429566  	70.805522 
504.393990  	71.091500 
505.358415  	71.059933 
506.322839  	70.148560 
507.287264  	69.537959 
508.251688  	70.291020 
509.216113  	70.888102 
510.180537  	70.484754 
511.144962  	70.102066 
512.109386  	70.247471 
513.073811  	69.949098 
514.038235  	69.578497 
515.002660  	69.149524 
515.967084  	68.560200 
516.931508  	68.059934 
517.895933  	68.780467 
518.860357  	68.963931 
519.824782  	68.498309 
520.789206  	69.039129 
521.753631  	69.266246 
522.718055  	69.180977 
523.682480  	68.810294 
524.646904  	68.406562 
525.611329  	67.933686 
526.575753  	67.764796 
527.540177  	67.763099 
528.504602  	67.473200 
529.469026  	67.190784 
530.433451  	67.129930 
531.397875  	67.059641 
532.362300  	67.162893 
533.326724  	67.301783 
534.291149  	66.997536 
535.255573  	67.234400 
536.219998  	67.763266 
537.184422  	68.234157 
538.148846  	68.337694 
539.113271  	68.617002 
540.077695  	68.799635 
541.042120  	69.235819 
542.006544  	69.588647 
542.970969  	69.420896 
543.935393  	69.120897 
544.899818  	69.266099 
545.864242  	69.381821 
546.828667  	69.229169 
547.793091  	68.941240 
548.757515  	68.912572 
549.721940  	68.719403 
550.686364  	68.554559 
551.650789  	68.746905 
552.615213  	68.500162 
553.579638  	68.281712 
554.544062  	68.218208 
555.508487  	68.151289 
556.472911  	67.733936 
557.437336  	67.238923 
558.401760  	67.055805 
559.366184  	67.010542 
560.330609  	66.346243 
561.295033  	66.011632 
562.259458  	65.786714 
563.223882  	65.239885 
564.188307  	64.881438 
565.152731  	64.561241 
566.117156  	64.100727 
567.081580  	63.485503 
568.046005  	63.009324 
569.010429  	62.459286 
569.974853  	61.911734 
570.939278  	61.168867 
571.903702  	60.648490 
572.868127  	60.262849 
573.832551  	59.761762 
574.796976  	59.522064 
575.761400  	58.981109 
576.725825  	58.980861 
577.690249  	59.198768 
578.654674  	59.505656 
579.619098  	59.867819 
580.583523  	60.316898 
581.547947  	61.217653 
582.512371  	62.288701 
583.476796  	63.156962 
584.441220  	63.885374 
585.405645  	64.724445 
586.370069  	65.776918 
587.334494  	66.578449 
588.298918  	67.131818 
589.263343  	67.560384 
590.227767  	68.046126 
591.192192  	68.176351 
592.156616  	68.316297 
593.121040  	68.949008 
594.085465  	69.473425 
595.049889  	69.730864 
596.014314  	69.919956 
596.978738  	70.086213 
597.943163  	70.316908 
598.907587  	70.494642 
599.872012  	70.451383 
600.836436  	70.524816 
601.800861  	70.737017 
602.765285  	70.942423 
603.729709  	71.179048 
604.694134  	71.252114 
605.658558  	71.283973 
606.622983  	71.407797 
607.587407  	71.295722 
608.551832  	71.304762 
609.516256  	71.431047 
610.480681  	71.443156 
611.445105  	71.404292 
612.409530  	71.584511 
613.373954  	71.653082 
614.338378  	71.415314 
615.302803  	71.264692 
616.267227  	71.245953 
617.231652  	71.446536 
618.196076  	71.491071 
619.160501  	71.458293 
620.124925  	71.225405 
621.089350  	71.238654 
622.053774  	71.399815 
623.018199  	71.851515 
623.982623  	71.622602 
624.947047  	71.489611 
625.911472  	71.410076 
626.875896  	71.449906 
627.840321  	71.385597 
628.804745  	71.471058 
629.769170  	71.373356 
630.733594  	71.310008 
631.698019  	71.391223 
632.662443  	71.420086 
633.626868  	71.164852 
634.591292  	71.016160 
635.555717  	70.877834 
636.520141  	71.140784 
637.484565  	71.077587 
638.448990  	70.915420 
639.413414  	70.688875 
640.377839  	70.673783 
641.342263  	70.611894 
642.306688  	70.426679 
643.271112  	70.365621 
644.235537  	70.368979 
645.199961  	70.186394 
646.164386  	70.161203 
647.128810  	70.089363 
648.093234  	69.865440 
649.057659  	69.578181 
650.022083  	69.463510 
650.986508  	69.401364 
651.950932  	69.109608 
652.915357  	68.774967 
653.879781  	68.692282 
654.844206  	68.612423 
655.808630  	68.283119 
656.773055  	67.844695 
657.737479  	67.737065 
658.701903  	67.409818 
659.666328  	67.023698 
660.630752  	66.834909 
661.595177  	66.666851 
662.559601  	66.446131 
663.524026  	66.118982 
664.488450  	65.887331 
665.452875  	65.537639 
666.417299  	65.409415 
667.381724  	65.474114 
668.346148  	64.721609 
669.310572  	64.253142 
670.274997  	64.200570 
671.239421  	64.162714 
672.203846  	63.909551 
673.168270  	63.647826 
674.132695  	63.345662 
675.097119  	63.142416 
676.061544  	62.914546 
677.025968  	62.753917 
677.990393  	62.483512 
678.954817  	62.369486 
679.919241  	62.338284 
680.883666  	62.407689 
681.848090  	62.326509 
682.812515  	62.219528 
683.776939  	62.119972 
684.741364  	62.127890 
685.705788  	62.228331 
686.670213  	62.447384 
687.634637  	62.615411 
688.599062  	62.812226 
689.563486  	63.124895 
690.527910  	63.597429 
691.492335  	64.009616 
692.456759  	64.429385 
693.421184  	64.852497 
694.385608  	65.418462 
695.350033  	65.930063 
696.314457  	66.335151 
697.278882  	66.662992 
698.243306  	67.134450 
699.207731  	67.543870 
700.172155  	67.947621 
701.136580  	68.301251 
702.101004  	68.717388 
703.065428  	69.097673 
704.029853  	69.340752 
704.994277  	69.561307 
705.958702  	69.930226 
706.923126  	70.269808 
707.887551  	70.479019 
708.851975  	70.765100 
709.816400  	70.920974 
710.780824  	71.033749 
711.745249  	71.175224 
712.709673  	71.317560 
713.674097  	71.372892 
714.638522  	71.593015 
715.602946  	71.797930 
716.567371  	71.785317 
717.531795  	71.786251 
718.496220  	71.740626 
719.460644  	71.743487 
720.425069  	71.841799 
721.389493  	71.929720 
722.353918  	71.948200 
723.318342  	71.903746 
724.282766  	71.890984 
725.247191  	71.790281 
726.211615  	71.688244 
727.176040  	71.695390 
728.140464  	71.626782 
729.104889  	71.616018 
730.069313  	71.836298 
731.033738  	72.362464 
731.998162  	73.009997 
732.962587  	73.725853 
733.927011  	74.418675 
734.891435  	75.122847 
735.855860  	75.860130 
736.820284  	76.616520 
737.784709  	77.263102 
738.749133  	77.831861 
739.713558  	78.279186 
740.677982  	78.666575 
741.642407  	79.005489 
742.606831  	79.363442 
743.571256  	79.567082 
744.535680  	79.620972 
745.500104  	79.841744 
746.464529  	79.979465 
747.428953  	80.012807 
748.393378  	80.190073 
749.357802  	80.267705 
750.322227  	80.321723 
751.286651  	80.426431 
752.251076  	80.568676 
753.215500  	80.659797 
754.179925  	80.766415 
755.144349  	80.818539 
756.108774  	80.981164 
757.073198  	81.084477 
758.037622  	81.079281 
759.002047  	81.085776 
759.966471  	81.224083 
760.930896  	81.325638 
761.895320  	81.437976 
762.859745  	81.645766 
763.824169  	81.831327 
764.788594  	81.973890 
765.753018  	82.032925 
766.717443  	82.065343 
767.681867  	82.216342 
768.646291  	82.381825 
769.610716  	82.517119 
770.575140  	82.631211 
771.539565  	82.775939 
772.503989  	82.788338 
773.468414  	82.806797 
774.432838  	82.860178 
775.397263  	83.013117 
776.361687  	83.109281 
777.326112  	83.364639 
778.290536  	83.501458 
779.254960  	83.528923 
780.219385  	83.530331 
781.183809  	83.943002 
782.148234  	83.794156 
783.112658  	83.828732 
784.077083  	83.949627 
785.041507  	84.024593 
786.005932  	84.255691 
786.970356  	84.160777 
787.934781  	84.072467 
788.899205  	84.105965 
789.863629  	84.245101 
790.828054  	84.228140 
791.792478  	84.224631 
792.756903  	84.332727 
793.721327  	84.381039 
794.685752  	84.279343 
795.650176  	84.378464 
796.614601  	84.517382 
797.579025  	84.538697 
798.543450  	84.494272 
799.507874  	84.667266 
800.472298  	84.946899 
801.436723  	85.120636 
802.401147  	85.179880 
803.365572  	85.238695 
804.329996  	85.428056 
805.294421  	85.609729 
806.258845  	85.699223 
807.223270  	85.798071 
808.187694  	85.847430 
809.152119  	85.855315 
810.116543  	85.919027 
811.080967  	86.031421 
812.045392  	86.083548 
813.009816  	86.139981 
813.974241  	86.216163 
814.938665  	86.336328 
815.903090  	86.389043 
816.867514  	86.376137 
817.831939  	86.484714 
818.796363  	86.640298 
819.760788  	86.708321 
820.725212  	86.766939 
821.689637  	86.807517 
822.654061  	86.882488 
823.618485  	86.970241 
824.582910  	86.983654 
825.547334  	86.946470 
826.511759  	86.943091 
827.476183  	87.043675 
828.440608  	87.149824 
829.405032  	87.171159 
830.369457  	87.229392 
831.333881  	87.335834 
832.298306  	87.405465 
833.262730  	87.385802 
834.227154  	87.413288 
835.191579  	87.515713 
836.156003  	87.588760 
837.120428  	87.518701 
838.084852  	87.418945 
839.049277  	87.441125 
840.013701  	87.496038 
840.978126  	87.492480 
841.942550  	87.588846 
842.906975  	87.651736 
843.871399  	87.638892 
844.835823  	87.616803 
845.800248  	87.671210 
846.764672  	87.738887 
847.729097  	87.799318 
848.693521  	87.795739 
849.657946  	87.795533 
850.622370  	87.845801 
851.586795  	87.854493 
852.551219  	87.747352 
853.515644  	87.790164 
854.480068  	87.823606 
855.444492  	87.827629 
856.408917  	87.877377 
857.373341  	87.902238 
858.337766  	87.893551 
859.302190  	87.954414 
860.266615  	87.935649 
861.231039  	87.883744 
862.195464  	87.899838 
863.159888  	87.887224 
864.124313  	87.878921 
865.088737  	87.929006 
866.053161  	88.009918 
867.017586  	88.010633 
867.982010  	87.958576 
868.946435  	87.962967 
869.910859  	87.942244 
870.875284  	87.909273 
871.839708  	87.882169 
872.804133  	87.869198 
873.768557  	87.871065 
874.732982  	87.789764 
875.697406  	87.705050 
876.661831  	87.675673 
877.626255  	87.659501 
878.590679  	87.709755 
879.555104  	87.725525 
880.519528  	87.709678 
881.483953  	87.655761 
882.448377  	87.620143 
883.412802  	87.621842 
884.377226  	87.585813 
885.341651  	87.582165 
886.306075  	87.531454 
887.270500  	87.502281 
888.234924  	87.574118 
889.199348  	87.536138 
890.163773  	87.386110 
891.128197  	87.372442 
892.092622  	87.372531 
893.057046  	87.267082 
894.021471  	87.206201 
894.985895  	87.204522 
895.950320  	87.059793 
896.914744  	86.865052 
897.879169  	86.744139 
898.843593  	86.636481 
899.808017  	86.436979 
900.772442  	86.098654 
901.736866  	85.749323 
902.701291  	85.502119 
903.665715  	85.236755 
904.630140  	84.936643 
905.594564  	84.743772 
906.558989  	84.771578 
907.523413  	84.999725 
908.487838  	85.264609 
909.452262  	85.570477 
910.416686  	85.857103 
911.381111  	85.973293 
912.345535  	85.969047 
913.309960  	85.924587 
914.274384  	85.853917 
915.238809  	85.732849 
916.203233  	85.644322 
917.167658  	85.590560 
918.132082  	85.488419 
919.096507  	85.307368 
920.060931  	85.169980 
921.025355  	85.051236 
921.989780  	84.883110 
922.954204  	84.627959 
923.918629  	84.314215 
924.883053  	84.008746 
925.847478  	83.684718 
926.811902  	83.266021 
927.776327  	82.810326 
928.740751  	82.261547 
929.705176  	81.607177 
930.669600  	80.868919 
931.634024  	80.152829 
932.598449  	79.490080 
933.562873  	78.994064 
934.527298  	78.852281 
935.491722  	79.085633 
936.456147  	79.696656 
937.420571  	80.607587 
938.384996  	81.535718 
939.349420  	82.423257 
940.313845  	83.251231 
941.278269  	83.934184 
942.242694  	84.454251 
943.207118  	84.842447 
944.171542  	85.190794 
945.135967  	85.495828 
946.100391  	85.726119 
947.064816  	85.832105 
948.029240  	85.919648 
948.993665  	86.071304 
949.958089  	86.192199 
950.922514  	86.267284 
951.886938  	86.344788 
952.851363  	86.371558 
953.815787  	86.386999 
954.780211  	86.487171 
955.744636  	86.566153 
956.709060  	86.595413 
957.673485  	86.616459 
958.637909  	86.624121 
959.602334  	86.627889 
960.566758  	86.656137 
961.531183  	86.629778 
962.495607  	86.593047 
963.460032  	86.648048 
964.424456  	86.694698 
965.388880  	86.648702 
966.353305  	86.619023 
967.317729  	86.655709 
968.282154  	86.672387 
969.246578  	86.641546 
970.211003  	86.616437 
971.175427  	86.587941 
972.139852  	86.487343 
973.104276  	86.397040 
974.068701  	86.379219 
975.033125  	86.344366 
975.997549  	86.288140 
976.961974  	86.218567 
977.926398  	86.161422 
978.890823  	86.110848 
979.855247  	86.019548 
980.819672  	85.921629 
981.784096  	85.829193 
982.748521  	85.717941 
983.712945  	85.546510 
984.677370  	85.355282 
985.641794  	85.225823 
986.606218  	85.154088 
987.570643  	85.108412 
988.535067  	85.080441 
989.499492  	85.076811 
990.463916  	85.044667 
991.428341  	84.997494 
992.392765  	84.928460 
993.357190  	84.807432 
994.321614  	84.722278 
995.286039  	84.630918 
996.250463  	84.554514 
997.214888  	84.491981 
998.179312  	84.439197 
999.143736  	84.331971 
1000.108161  	84.243282 
1001.072585  	84.217668 
1002.037010  	84.192105 
1003.001434  	84.110687 
1003.965859  	84.027853 
1004.930283  	83.965128 
1005.894708  	83.859037 
1006.859132  	83.751032 
1007.823557  	83.632777 
1008.787981  	83.517296 
1009.752405  	83.429681 
1010.716830  	83.312952 
1011.681254  	83.219227 
1012.645679  	83.186881 
1013.610103  	83.130746 
1014.574528  	82.994565 
1015.538952  	82.913034 
1016.503377  	82.945295 
1017.467801  	82.934533 
1018.432226  	82.869545 
1019.396650  	82.865413 
1020.361074  	82.886416 
1021.325499  	82.876913 
1022.289923  	82.834463 
1023.254348  	82.786917 
1024.218772  	82.690040 
1025.183197  	82.577782 
1026.147621  	82.458169 
1027.112046  	82.399911 
1028.076470  	82.342498 
1029.040895  	82.217234 
1030.005319  	82.095009 
1030.969743  	82.022623 
1031.934168  	81.996252 
1032.898592  	81.966993 
1033.863017  	81.924316 
1034.827441  	81.845595 
1035.791866  	81.767280 
1036.756290  	81.745172 
1037.720715  	81.721693 
1038.685139  	81.695387 
1039.649564  	81.683481 
1040.613988  	81.677436 
1041.578412  	81.633613 
1042.542837  	81.656673 
1043.507261  	81.789133 
1044.471686  	81.855784 
1045.436110  	81.898578 
1046.400535  	81.993853 
1047.364959  	82.077267 
1048.329384  	82.085172 
1049.293808  	82.078838 
1050.258233  	82.156177 
1051.222657  	82.253308 
1052.187081  	82.242776 
1053.151506  	82.199059 
1054.115930  	82.177707 
1055.080355  	82.150542 
1056.044779  	82.110071 
1057.009204  	82.054906 
1057.973628  	82.026244 
1058.938053  	82.031279 
1059.902477  	81.938881 
1060.866902  	81.867954 
1061.831326  	81.918075 
1062.795751  	81.944276 
1063.760175  	81.946402 
1064.724599  	81.977380 
1065.689024  	82.064552 
1066.653448  	82.197228 
1067.617873  	82.356370 
1068.582297  	82.502206 
1069.546722  	82.682683 
1070.511146  	82.843523 
1071.475571  	82.973834 
1072.439995  	83.099212 
1073.404420  	83.182510 
1074.368844  	83.227682 
1075.333268  	83.244256 
1076.297693  	83.230054 
1077.262117  	83.261614 
1078.226542  	83.303299 
1079.190966  	83.281664 
1080.155391  	83.221563 
1081.119815  	83.170855 
1082.084240  	83.182850 
1083.048664  	83.209251 
1084.013089  	83.194649 
1084.977513  	83.152198 
1085.941937  	83.045730 
1086.906362  	82.890669 
1087.870786  	82.808360 
1088.835211  	82.783715 
1089.799635  	82.703443 
1090.764060  	82.607935 
1091.728484  	82.570306 
1092.692909  	82.523472 
1093.657333  	82.425245 
1094.621758  	82.313744 
1095.586182  	82.319171 
1096.550606  	82.321271 
1097.515031  	82.287879 
1098.479455  	82.257083 
1099.443880  	82.242786 
1100.408304  	82.305742 
1101.372729  	82.336094 
1102.337153  	82.374502 
1103.301578  	82.417307 
1104.266002  	82.425229 
1105.230427  	82.403622 
1106.194851  	82.407372 
1107.159275  	82.442253 
1108.123700  	82.452107 
1109.088124  	82.427508 
1110.052549  	82.407198 
1111.016973  	82.419984 
1111.981398  	82.425284 
1112.945822  	82.411195 
1113.910247  	82.413202 
1114.874671  	82.434747 
1115.839096  	82.479064 
1116.803520  	82.509800 
1117.767945  	82.473267 
1118.732369  	82.455220 
1119.696793  	82.482381 
1120.661218  	82.463347 
1121.625642  	82.404039 
1122.590067  	82.371726 
1123.554491  	82.306760 
1124.518916  	82.197496 
1125.483340  	82.106161 
1126.447765  	82.062564 
1127.412189  	81.985063 
1128.376614  	81.863828 
1129.341038  	81.739649 
1130.305462  	81.583877 
1131.269887  	81.358796 
1132.234311  	81.036757 
1133.198736  	80.663373 
1134.163160  	80.296692 
1135.127585  	79.863386 
1136.092009  	79.378678 
1137.056434  	78.957324 
1138.020858  	78.712205 
1138.985283  	78.617158 
1139.949707  	78.598988 
1140.914131  	78.670942 
1141.878556  	78.787516 
1142.842980  	78.832906 
1143.807405  	78.829903 
1144.771829  	78.837569 
1145.736254  	78.849757 
1146.700678  	78.866232 
1147.665103  	78.885344 
1148.629527  	78.964987 
1149.593952  	79.099513 
1150.558376  	79.270242 
1151.522800  	79.420248 
1152.487225  	79.612218 
1153.451649  	79.823695 
1154.416074  	80.017393 
1155.380498  	80.150558 
1156.344923  	80.254652 
1157.309347  	80.353672 
1158.273772  	80.437835 
1159.238196  	80.441025 
1160.202621  	80.444478 
1161.167045  	80.423406 
1162.131469  	80.337367 
1163.095894  	80.206040 
1164.060318  	80.087816 
1165.024743  	79.957850 
1165.989167  	79.796783 
1166.953592  	79.606546 
1167.918016  	79.407195 
1168.882441  	79.154981 
1169.846865  	78.806761 
1170.811290  	78.435770 
1171.775714  	78.010776 
1172.740138  	77.567184 
1173.704563  	77.041542 
1174.668987  	76.434078 
1175.633412  	75.931810 
1176.597836  	75.497043 
1177.562261  	75.117986 
1178.526685  	74.836414 
1179.491110  	74.759746 
1180.455534  	74.842419 
1181.419959  	75.012323 
1182.384383  	75.252073 
1183.348808  	75.499696 
1184.313232  	75.725802 
1185.277656  	75.865412 
1186.242081  	75.908801 
1187.206505  	75.884831 
1188.170930  	75.759488 
1189.135354  	75.453212 
1190.099779  	74.994379 
1191.064203  	74.429629 
