##TITLE=No Description
##DATA TYPE=INFRARED SPECTRUM
##XUNITS=1/CM
##YUNITS=%T
400.236149  	104.246150 
401.200574  	101.961686 
402.164998  	85.132179 
403.129423  	88.233743 
404.093847  	101.937224 
405.058272  	89.196528 
406.022696  	70.964959 
406.987120  	73.939006 
407.951545  	87.496245 
408.915969  	87.657119 
409.880394  	87.952142 
410.844818  	94.289318 
411.809243  	100.521425 
412.773667  	94.396550 
413.738092  	81.378483 
414.702516  	76.056754 
415.666941  	79.737661 
416.631365  	88.474273 
417.595789  	97.522694 
418.560214  	107.423726 
419.524638  	95.580903 
420.489063  	89.416808 
421.453487  	87.643925 
422.417912  	88.933302 
423.382336  	88.821523 
424.346761  	84.144946 
425.311185  	78.628836 
426.275610  	81.255794 
427.240034  	83.615157 
428.204458  	83.385065 
429.168883  	83.572061 
430.133307  	83.437660 
431.097732  	82.723765 
432.062156  	82.541791 
433.026581  	81.310959 
433.991005  	82.251853 
434.955430  	84.134390 
435.919854  	83.543959 
436.884279  	80.316838 
437.848703  	80.525504 
438.813127  	82.827467 
439.777552  	81.774843 
440.741976  	80.373712 
441.706401  	81.572414 
442.670825  	82.262120 
443.635250  	80.376578 
444.599674  	80.969084 
445.564099  	80.819325 
446.528523  	78.760560 
447.492948  	79.574670 
448.457372  	80.414091 
449.421796  	79.441028 
450.386221  	79.084064 
451.350645  	79.674366 
452.315070  	78.866408 
453.279494  	78.658035 
454.243919  	79.311237 
455.208343  	78.345356 
456.172768  	76.930729 
457.137192  	77.591149 
458.101617  	78.867684 
459.066041  	78.150377 
460.030466  	78.463495 
460.994890  	78.251224 
461.959314  	78.120869 
462.923739  	78.237471 
463.888163  	77.511841 
464.852588  	76.478931 
465.817012  	76.439963 
466.781437  	76.700355 
467.745861  	76.367706 
468.710286  	75.963328 
469.674710  	75.557966 
470.639135  	76.007530 
471.603559  	76.270147 
472.567983  	76.571065 
473.532408  	76.697474 
474.496832  	76.004284 
475.461257  	76.000607 
476.425681  	75.821476 
477.390106  	75.744480 
478.354530  	76.531930 
479.318955  	76.384646 
480.283379  	75.700354 
481.247804  	75.412764 
482.212228  	75.173063 
483.176652  	75.779740 
484.141077  	75.844359 
485.105501  	74.644520 
486.069926  	74.180514 
487.034350  	74.508860 
487.998775  	74.526126 
488.963199  	74.586073 
489.927624  	74.550060 
490.892048  	73.827056 
491.856473  	73.682900 
492.820897  	74.610453 
493.785321  	74.676334 
494.749746  	73.784031 
495.714170  	73.849725 
496.678595  	74.312973 
497.643019  	74.549623 
498.607444  	74.654756 
499.571868  	73.704993 
500.536293  	73.325492 
501.500717  	73.095268 
502.465142  	72.586890 
503.429566  	72.838886 
504.393990  	72.740900 
505.358415  	72.303534 
506.322839  	71.622263 
507.287264  	71.528000 
508.251688  	72.356938 
509.216113  	72.537927 
510.180537  	71.929733 
511.144962  	71.827765 
512.109386  	72.057341 
513.073811  	72.230380 
514.038235  	72.148254 
515.002660  	71.588991 
515.967084  	71.228615 
516.931508  	71.153845 
517.895933  	71.137408 
518.860357  	70.929741 
519.824782  	70.277383 
520.789206  	70.761245 
521.753631  	71.159458 
522.718055  	70.856402 
523.682480  	70.494487 
524.646904  	69.805493 
525.611329  	68.960803 
526.575753  	69.189088 
527.540177  	69.751105 
528.504602  	69.636606 
529.469026  	69.353161 
530.433451  	69.156734 
531.397875  	68.662445 
532.362300  	68.140474 
533.326724  	68.207687 
534.291149  	68.252019 
535.255573  	68.238175 
536.219998  	68.531939 
537.184422  	69.306244 
538.148846  	69.481641 
539.113271  	69.966787 
540.077695  	70.586031 
541.042120  	71.082204 
542.006544  	71.117158 
542.970969  	70.966061 
543.935393  	70.860742 
544.899818  	70.602663 
545.864242  	70.756560 
546.828667  	70.953168 
547.793091  	70.625412 
548.757515  	70.432167 
549.721940  	70.694150 
550.686364  	70.371172 
551.650789  	70.047805 
552.615213  	69.468391 
553.579638  	69.488748 
554.544062  	69.450621 
555.508487  	69.500462 
556.472911  	69.190142 
557.437336  	68.488100 
558.401760  	68.314896 
559.366184  	68.413778 
560.330609  	68.000123 
561.295033  	67.321069 
562.259458  	66.797065 
563.223882  	66.048855 
564.188307  	65.455280 
565.152731  	65.379854 
566.117156  	64.979083 
567.081580  	64.063776 
568.046005  	63.546575 
569.010429  	63.096736 
569.974853  	62.471720 
570.939278  	61.894243 
571.903702  	61.212024 
572.868127  	60.583956 
573.832551  	60.051337 
574.796976  	59.762082 
575.761400  	59.194927 
576.725825  	59.165360 
577.690249  	59.466778 
578.654674  	59.798368 
579.619098  	60.162226 
580.583523  	60.649164 
581.547947  	61.557520 
582.512371  	62.727251 
583.476796  	63.542132 
584.441220  	64.298137 
585.405645  	65.286202 
586.370069  	66.534921 
587.334494  	67.389710 
588.298918  	67.973107 
589.263343  	68.469461 
590.227767  	69.060075 
591.192192  	69.277642 
592.156616  	69.482193 
593.121040  	70.071563 
594.085465  	70.467030 
595.049889  	70.759258 
596.014314  	70.978756 
596.978738  	71.052928 
597.943163  	71.282323 
598.907587  	71.327229 
599.872012  	71.250756 
600.836436  	71.667455 
601.800861  	72.037201 
602.765285  	72.085774 
603.729709  	72.105295 
604.694134  	72.262423 
605.658558  	72.473000 
606.622983  	72.425239 
607.587407  	72.405829 
608.551832  	72.552830 
609.516256  	72.753989 
610.480681  	72.662627 
611.445105  	72.573986 
612.409530  	72.737404 
613.373954  	72.830500 
614.338378  	72.581213 
615.302803  	72.387271 
616.267227  	72.428011 
617.231652  	72.778257 
618.196076  	72.814113 
619.160501  	72.735401 
620.124925  	72.558469 
621.089350  	72.674429 
622.053774  	72.749142 
623.018199  	72.950844 
623.982623  	72.966957 
624.947047  	72.903263 
625.911472  	72.642879 
626.875896  	72.632770 
627.840321  	72.582538 
628.804745  	72.700368 
629.769170  	72.715258 
630.733594  	72.593222 
631.698019  	72.534979 
632.662443  	72.458375 
633.626868  	72.312843 
634.591292  	72.231322 
635.555717  	72.123184 
636.520141  	72.355548 
637.484565  	72.211382 
638.448990  	72.123647 
639.413414  	72.002279 
640.377839  	71.932026 
641.342263  	71.806346 
642.306688  	71.540388 
643.271112  	71.485840 
644.235537  	71.501439 
645.199961  	71.273878 
646.164386  	71.129388 
647.128810  	71.035075 
648.093234  	70.793178 
649.057659  	70.466191 
650.022083  	70.239825 
650.986508  	70.081862 
651.950932  	69.898589 
652.915357  	69.593474 
653.879781  	69.468138 
654.844206  	69.354191 
655.808630  	69.136023 
656.773055  	68.685239 
657.737479  	68.430448 
658.701903  	68.146933 
659.666328  	67.879754 
660.630752  	67.583037 
661.595177  	67.152974 
662.559601  	66.750889 
663.524026  	66.574463 
664.488450  	66.397927 
665.452875  	66.064269 
666.417299  	65.790938 
667.381724  	65.737809 
668.346148  	64.737311 
669.310572  	64.354473 
670.274997  	64.438771 
671.239421  	64.379139 
672.203846  	64.171448 
673.168270  	63.869523 
674.132695  	63.395196 
675.097119  	63.149554 
676.061544  	62.926783 
677.025968  	62.769461 
677.990393  	62.618393 
678.954817  	62.486172 
679.919241  	62.431982 
680.883666  	62.392189 
681.848090  	62.290347 
682.812515  	62.305574 
683.776939  	62.347894 
684.741364  	62.345620 
685.705788  	62.254916 
686.670213  	62.412682 
687.634637  	62.624508 
688.599062  	62.951265 
689.563486  	63.318088 
690.527910  	63.736082 
691.492335  	64.144785 
692.456759  	64.621715 
693.421184  	65.034747 
694.385608  	65.567376 
695.350033  	66.156677 
696.314457  	66.647320 
697.278882  	67.033775 
698.243306  	67.406708 
699.207731  	67.930291 
700.172155  	68.413006 
701.136580  	68.695034 
702.101004  	68.994392 
703.065428  	69.299264 
704.029853  	69.669823 
704.994277  	69.984675 
705.958702  	70.313323 
706.923126  	70.595253 
707.887551  	70.786152 
708.851975  	71.096725 
709.816400  	71.303735 
710.780824  	71.427035 
711.745249  	71.550549 
712.709673  	71.655336 
713.674097  	71.694621 
714.638522  	71.848925 
715.602946  	71.933819 
716.567371  	72.016179 
717.531795  	72.108842 
718.496220  	72.077613 
719.460644  	72.051313 
720.425069  	72.178640 
721.389493  	72.297209 
722.353918  	72.259346 
723.318342  	72.227511 
724.282766  	72.209903 
725.247191  	72.060808 
726.211615  	71.948471 
727.176040  	72.028548 
728.140464  	72.007283 
729.104889  	72.045511 
730.069313  	72.262927 
731.033738  	72.745421 
731.998162  	73.421470 
732.962587  	74.127050 
733.927011  	74.871035 
734.891435  	75.562688 
735.855860  	76.276492 
736.820284  	77.052861 
737.784709  	77.759252 
738.749133  	78.447073 
739.713558  	78.995120 
740.677982  	79.420819 
741.642407  	79.796204 
742.606831  	80.142817 
743.571256  	80.365197 
744.535680  	80.459345 
745.500104  	80.692001 
746.464529  	80.922104 
747.428953  	80.938390 
748.393378  	81.063279 
749.357802  	81.141965 
750.322227  	81.168371 
751.286651  	81.199533 
752.251076  	81.307361 
753.215500  	81.486284 
754.179925  	81.638019 
755.144349  	81.795718 
756.108774  	81.963556 
757.073198  	82.061065 
758.037622  	82.116085 
759.002047  	82.132676 
759.966471  	82.218429 
760.930896  	82.357029 
761.895320  	82.542538 
762.859745  	82.758097 
763.824169  	82.909420 
764.788594  	82.961310 
765.753018  	83.062100 
766.717443  	83.226320 
767.681867  	83.399110 
768.646291  	83.458294 
769.610716  	83.590947 
770.575140  	83.744663 
771.539565  	83.937023 
772.503989  	83.997292 
773.468414  	84.004964 
774.432838  	84.167532 
775.397263  	84.424700 
776.361687  	84.464442 
777.326112  	84.616747 
778.290536  	84.769504 
779.254960  	84.751455 
780.219385  	84.667241 
781.183809  	84.919489 
782.148234  	85.080077 
783.112658  	85.250407 
784.077083  	85.231614 
785.041507  	85.261274 
786.005932  	85.469328 
786.970356  	85.376949 
787.934781  	85.393538 
788.899205  	85.481954 
789.863629  	85.582856 
790.828054  	85.591114 
791.792478  	85.587696 
792.756903  	85.654536 
793.721327  	85.726854 
794.685752  	85.660585 
795.650176  	85.685083 
796.614601  	85.854503 
797.579025  	85.996102 
798.543450  	85.906408 
799.507874  	85.928473 
800.472298  	86.230159 
801.436723  	86.500714 
802.401147  	86.599066 
803.365572  	86.745238 
804.329996  	86.972714 
805.294421  	87.034858 
806.258845  	86.980681 
807.223270  	87.153182 
808.187694  	87.332032 
809.152119  	87.364780 
810.116543  	87.368446 
811.080967  	87.462353 
812.045392  	87.563033 
813.009816  	87.604507 
813.974241  	87.702345 
814.938665  	87.826780 
815.903090  	87.884666 
816.867514  	87.922550 
817.831939  	88.032606 
818.796363  	88.186023 
819.760788  	88.282416 
820.725212  	88.368949 
821.689637  	88.343191 
822.654061  	88.406412 
823.618485  	88.518531 
824.582910  	88.579467 
825.547334  	88.597547 
826.511759  	88.625321 
827.476183  	88.705794 
828.440608  	88.769316 
829.405032  	88.762416 
830.369457  	88.807525 
831.333881  	88.858160 
832.298306  	88.913352 
833.262730  	88.977743 
834.227154  	89.118757 
835.191579  	89.180860 
836.156003  	89.149580 
837.120428  	89.166741 
838.084852  	89.189490 
839.049277  	89.236048 
840.013701  	89.205073 
840.978126  	89.164613 
841.942550  	89.343978 
842.906975  	89.465356 
843.871399  	89.380268 
844.835823  	89.341881 
845.800248  	89.436848 
846.764672  	89.506715 
847.729097  	89.565631 
848.693521  	89.541958 
849.657946  	89.500427 
850.622370  	89.579387 
851.586795  	89.650562 
852.551219  	89.554646 
853.515644  	89.575082 
854.480068  	89.632168 
855.444492  	89.602677 
856.408917  	89.619050 
857.373341  	89.670467 
858.337766  	89.758584 
859.302190  	89.828117 
860.266615  	89.815116 
861.231039  	89.773017 
862.195464  	89.760162 
863.159888  	89.767448 
864.124313  	89.796689 
865.088737  	89.824011 
866.053161  	89.830508 
867.017586  	89.782925 
867.982010  	89.753591 
868.946435  	89.853921 
869.910859  	89.871505 
870.875284  	89.829990 
871.839708  	89.813522 
872.804133  	89.826087 
873.768557  	89.798230 
874.732982  	89.707874 
875.697406  	89.674030 
876.661831  	89.633010 
877.626255  	89.633423 
878.590679  	89.662697 
879.555104  	89.693257 
880.519528  	89.715256 
881.483953  	89.645327 
882.448377  	89.554752 
883.412802  	89.613685 
884.377226  	89.660941 
885.341651  	89.608118 
886.306075  	89.592148 
887.270500  	89.555272 
888.234924  	89.582905 
889.199348  	89.525670 
890.163773  	89.454616 
891.128197  	89.480093 
892.092622  	89.440454 
893.057046  	89.315312 
894.021471  	89.239320 
894.985895  	89.187855 
895.950320  	89.022199 
896.914744  	88.871754 
897.879169  	88.788810 
898.843593  	88.647869 
899.808017  	88.410672 
900.772442  	88.120571 
901.736866  	87.776916 
902.701291  	87.415775 
903.665715  	87.078711 
904.630140  	86.763589 
905.594564  	86.568442 
906.558989  	86.606558 
907.523413  	86.820350 
908.487838  	87.105448 
909.452262  	87.404432 
910.416686  	87.704254 
911.381111  	87.888637 
912.345535  	87.937636 
913.309960  	87.897754 
914.274384  	87.797653 
915.238809  	87.746634 
916.203233  	87.629457 
917.167658  	87.505996 
918.132082  	87.345633 
919.096507  	87.214451 
920.060931  	87.090802 
921.025355  	86.898657 
921.989780  	86.635191 
922.954204  	86.341379 
923.918629  	86.015236 
924.883053  	85.744726 
925.847478  	85.448584 
926.811902  	84.977393 
927.776327  	84.400641 
928.740751  	83.778313 
929.705176  	83.134275 
930.669600  	82.378558 
931.634024  	81.574448 
932.598449  	80.910258 
933.562873  	80.414438 
934.527298  	80.232691 
935.491722  	80.450576 
936.456147  	81.081291 
937.420571  	82.029545 
938.384996  	83.068958 
939.349420  	84.015618 
940.313845  	84.892262 
941.278269  	85.671466 
942.242694  	86.282095 
943.207118  	86.720346 
944.171542  	87.080323 
945.135967  	87.373122 
946.100391  	87.606618 
947.064816  	87.780993 
948.029240  	87.941580 
948.993665  	88.132609 
949.958089  	88.280457 
950.922514  	88.376564 
951.886938  	88.513350 
952.851363  	88.548438 
953.815787  	88.573142 
954.780211  	88.661356 
955.744636  	88.792579 
956.709060  	88.885129 
957.673485  	88.922939 
958.637909  	88.961234 
959.602334  	88.992073 
960.566758  	89.012814 
961.531183  	89.017160 
962.495607  	89.042312 
963.460032  	89.108423 
964.424456  	89.151940 
965.388880  	89.087962 
966.353305  	89.083209 
967.317729  	89.217284 
968.282154  	89.263237 
969.246578  	89.245973 
970.211003  	89.259654 
971.175427  	89.253173 
972.139852  	89.200621 
973.104276  	89.163062 
974.068701  	89.172849 
975.033125  	89.178796 
975.997549  	89.141048 
976.961974  	89.112186 
977.926398  	89.091772 
978.890823  	89.063390 
979.855247  	88.994002 
980.819672  	88.917539 
981.784096  	88.873427 
982.748521  	88.828861 
983.712945  	88.713924 
984.677370  	88.551116 
985.641794  	88.461313 
986.606218  	88.421966 
987.570643  	88.384859 
988.535067  	88.347434 
989.499492  	88.348490 
990.463916  	88.341015 
991.428341  	88.326207 
992.392765  	88.252421 
993.357190  	88.169676 
994.321614  	88.100393 
995.286039  	88.027183 
996.250463  	88.003342 
997.214888  	87.984810 
998.179312  	87.927235 
999.143736  	87.866329 
1000.108161  	87.804077 
1001.072585  	87.780421 
1002.037010  	87.757317 
1003.001434  	87.679575 
1003.965859  	87.612632 
1004.930283  	87.540914 
1005.894708  	87.429639 
1006.859132  	87.317292 
1007.823557  	87.207647 
1008.787981  	87.133549 
1009.752405  	87.051875 
1010.716830  	86.922500 
1011.681254  	86.835312 
1012.645679  	86.796266 
1013.610103  	86.749750 
1014.574528  	86.672727 
1015.538952  	86.627104 
1016.503377  	86.690768 
1017.467801  	86.721906 
1018.432226  	86.681623 
1019.396650  	86.668800 
1020.361074  	86.691690 
1021.325499  	86.693777 
1022.289923  	86.669956 
1023.254348  	86.619695 
1024.218772  	86.554455 
1025.183197  	86.501485 
1026.147621  	86.439890 
1027.112046  	86.407528 
1028.076470  	86.340067 
1029.040895  	86.260804 
1030.005319  	86.178479 
1030.969743  	86.095961 
1031.934168  	86.063080 
1032.898592  	86.024490 
1033.863017  	85.940709 
1034.827441  	85.791016 
1035.791866  	85.696887 
1036.756290  	85.652879 
1037.720715  	85.612737 
1038.685139  	85.558129 
1039.649564  	85.514223 
1040.613988  	85.497255 
1041.578412  	85.475789 
1042.542837  	85.509508 
1043.507261  	85.584576 
1044.471686  	85.681477 
1045.436110  	85.758351 
1046.400535  	85.846866 
1047.364959  	85.932831 
1048.329384  	85.982663 
1049.293808  	86.044186 
1050.258233  	86.122923 
1051.222657  	86.202982 
1052.187081  	86.208657 
1053.151506  	86.172693 
1054.115930  	86.193947 
1055.080355  	86.175526 
1056.044779  	86.108723 
1057.009204  	86.043206 
1057.973628  	86.012763 
1058.938053  	85.984770 
1059.902477  	85.877866 
1060.866902  	85.737899 
1061.831326  	85.694689 
1062.795751  	85.682235 
1063.760175  	85.630289 
1064.724599  	85.581119 
1065.689024  	85.600842 
1066.653448  	85.730147 
1067.617873  	85.838150 
1068.582297  	85.971693 
1069.546722  	86.198131 
1070.511146  	86.393495 
1071.475571  	86.486685 
1072.439995  	86.581390 
1073.404420  	86.695382 
1074.368844  	86.748760 
1075.333268  	86.777629 
1076.297693  	86.775057 
1077.262117  	86.706818 
1078.226542  	86.708788 
1079.190966  	86.724548 
1080.155391  	86.673091 
1081.119815  	86.632305 
1082.084240  	86.596733 
1083.048664  	86.566393 
1084.013089  	86.546103 
1084.977513  	86.509930 
1085.941937  	86.398306 
1086.906362  	86.284307 
1087.870786  	86.196807 
1088.835211  	86.085225 
1089.799635  	85.932184 
1090.764060  	85.843925 
1091.728484  	85.903387 
1092.692909  	85.931372 
1093.657333  	85.871412 
1094.621758  	85.801454 
1095.586182  	85.789380 
1096.550606  	85.771517 
1097.515031  	85.747816 
1098.479455  	85.748927 
1099.443880  	85.761632 
1100.408304  	85.770066 
1101.372729  	85.792149 
1102.337153  	85.808335 
1103.301578  	85.807834 
1104.266002  	85.849904 
1105.230427  	85.891002 
1106.194851  	85.880862 
1107.159275  	85.873793 
1108.123700  	85.849433 
1109.088124  	85.825950 
1110.052549  	85.806845 
1111.016973  	85.851154 
1111.981398  	85.899435 
1112.945822  	85.913105 
1113.910247  	85.884746 
1114.874671  	85.829646 
1115.839096  	85.808043 
1116.803520  	85.803903 
1117.767945  	85.748448 
1118.732369  	85.685804 
1119.696793  	85.655341 
1120.661218  	85.577229 
1121.625642  	85.453944 
1122.590067  	85.388501 
1123.554491  	85.303859 
1124.518916  	85.162756 
1125.483340  	85.025649 
1126.447765  	84.937216 
1127.412189  	84.837398 
1128.376614  	84.652570 
1129.341038  	84.429371 
1130.305462  	84.283863 
1131.269887  	84.055983 
1132.234311  	83.681341 
1133.198736  	83.239606 
1134.163160  	82.752662 
1135.127585  	82.214502 
1136.092009  	81.631321 
1137.056434  	81.142134 
1138.020858  	80.860007 
1138.985283  	80.697166 
1139.949707  	80.618765 
1140.914131  	80.684335 
1141.878556  	80.800257 
1142.842980  	80.840848 
1143.807405  	80.865080 
1144.771829  	80.904872 
1145.736254  	80.904648 
1146.700678  	80.886375 
1147.665103  	80.895654 
1148.629527  	81.004189 
1149.593952  	81.206019 
1150.558376  	81.429942 
1151.522800  	81.617893 
1152.487225  	81.843251 
1153.451649  	82.131070 
1154.416074  	82.385715 
1155.380498  	82.570913 
1156.344923  	82.756454 
1157.309347  	82.916328 
1158.273772  	82.993861 
1159.238196  	82.988297 
1160.202621  	82.996070 
1161.167045  	82.988313 
1162.131469  	82.899798 
1163.095894  	82.746844 
1164.060318  	82.608994 
1165.024743  	82.442059 
1165.989167  	82.212672 
1166.953592  	81.964085 
1167.918016  	81.696634 
1168.882441  	81.376350 
1169.846865  	80.979630 
1170.811290  	80.536775 
1171.775714  	80.046288 
1172.740138  	79.518684 
1173.704563  	78.899083 
1174.668987  	78.200237 
1175.633412  	77.617923 
1176.597836  	77.104873 
1177.562261  	76.615944 
1178.526685  	76.258287 
1179.491110  	76.110293 
1180.455534  	76.136108 
1181.419959  	76.294504 
1182.384383  	76.505951 
1183.348808  	76.729167 
1184.313232  	76.964146 
1185.277656  	77.119236 
1186.242081  	77.176128 
1187.206505  	77.149955 
1188.170930  	77.003624 
1189.135354  	76.682852 
1190.099779  	76.246816 
1191.064203  	75.742969 
