##TITLE=No Description
##DATA TYPE=INFRARED SPECTRUM
##XUNITS=1/CM
##YUNITS=%T
400.236149  	101.244887 
401.200574  	92.118837 
402.164998  	83.776280 
403.129423  	76.385425 
404.093847  	78.241524 
405.058272  	77.562065 
406.022696  	75.238441 
406.987120  	76.717775 
407.951545  	95.763043 
408.915969  	80.222858 
409.880394  	75.596396 
410.844818  	89.051273 
411.809243  	92.542594 
412.773667  	83.624837 
413.738092  	76.872254 
414.702516  	71.588177 
415.666941  	73.965920 
416.631365  	88.589594 
417.595789  	97.173990 
418.560214  	96.889693 
419.524638  	89.038223 
420.489063  	90.895994 
421.453487  	89.411988 
422.417912  	88.514128 
423.382336  	89.758713 
424.346761  	85.305330 
425.311185  	81.638610 
426.275610  	82.477474 
427.240034  	83.592173 
428.204458  	85.790953 
429.168883  	85.766297 
430.133307  	83.401987 
431.097732  	82.435434 
432.062156  	80.584241 
433.026581  	79.984826 
433.991005  	80.514992 
434.955430  	81.786718 
435.919854  	81.898469 
436.884279  	81.732349 
437.848703  	82.681614 
438.813127  	82.458993 
439.777552  	82.773705 
440.741976  	83.929850 
441.706401  	81.897963 
442.670825  	80.156796 
443.635250  	79.748167 
444.599674  	81.533328 
445.564099  	82.657988 
446.528523  	81.105111 
447.492948  	80.710255 
448.457372  	81.079500 
449.421796  	80.663254 
450.386221  	80.437639 
451.350645  	81.853223 
452.315070  	82.026123 
453.279494  	79.682181 
454.243919  	79.795829 
455.208343  	79.711305 
456.172768  	78.491823 
457.137192  	78.785216 
458.101617  	79.449108 
459.066041  	78.130650 
460.030466  	77.478538 
460.994890  	77.952236 
461.959314  	77.868617 
462.923739  	77.711231 
463.888163  	77.475424 
464.852588  	78.091232 
465.817012  	78.681677 
466.781437  	78.372192 
467.745861  	77.818803 
468.710286  	77.415995 
469.674710  	76.987559 
470.639135  	77.027494 
471.603559  	77.390144 
472.567983  	77.946147 
473.532408  	77.139963 
474.496832  	76.057043 
475.461257  	75.942632 
476.425681  	75.899675 
477.390106  	76.621682 
478.354530  	77.578315 
479.318955  	76.621081 
480.283379  	76.077691 
481.247804  	76.094697 
482.212228  	76.461045 
483.176652  	76.621317 
484.141077  	77.149275 
485.105501  	76.029227 
486.069926  	74.764470 
487.034350  	75.360054 
487.998775  	75.924365 
488.963199  	75.721572 
489.927624  	75.780766 
490.892048  	75.619324 
491.856473  	75.250802 
492.820897  	74.884135 
493.785321  	74.788985 
494.749746  	74.613024 
495.714170  	74.366790 
496.678595  	74.400174 
497.643019  	74.450482 
498.607444  	74.452250 
499.571868  	74.241023 
500.536293  	73.929115 
501.500717  	73.904733 
502.465142  	73.503434 
503.429566  	73.946274 
504.393990  	74.284816 
505.358415  	73.723278 
506.322839  	73.012233 
507.287264  	72.908871 
508.251688  	73.079551 
509.216113  	73.262349 
510.180537  	72.657992 
511.144962  	72.558846 
512.109386  	72.840370 
513.073811  	72.687944 
514.038235  	72.475219 
515.002660  	71.917127 
515.967084  	71.531396 
516.931508  	71.950853 
517.895933  	72.191505 
518.860357  	71.736707 
519.824782  	71.423586 
520.789206  	71.272854 
521.753631  	71.384383 
522.718055  	71.291107 
523.682480  	71.093955 
524.646904  	71.008964 
525.611329  	70.549541 
526.575753  	70.018706 
527.540177  	69.959276 
528.504602  	69.632164 
529.469026  	69.199636 
530.433451  	68.762177 
531.397875  	68.616835 
532.362300  	68.623361 
533.326724  	68.787951 
534.291149  	68.703620 
535.255573  	68.830904 
536.219998  	69.335936 
537.184422  	69.991132 
538.148846  	70.337906 
539.113271  	70.511736 
540.077695  	71.134985 
541.042120  	71.456886 
542.006544  	71.602438 
542.970969  	71.650960 
543.935393  	71.717589 
544.899818  	71.458671 
545.864242  	71.425505 
546.828667  	71.387398 
547.793091  	71.290559 
548.757515  	71.101957 
549.721940  	70.956844 
550.686364  	70.961154 
551.650789  	70.883783 
552.615213  	70.442646 
553.579638  	70.400196 
554.544062  	70.200679 
555.508487  	69.885464 
556.472911  	69.541726 
557.437336  	69.162899 
558.401760  	68.690055 
559.366184  	68.516601 
560.330609  	68.132228 
561.295033  	67.649552 
562.259458  	67.317180 
563.223882  	66.637156 
564.188307  	65.895364 
565.152731  	65.722167 
566.117156  	65.240384 
567.081580  	64.467510 
568.046005  	63.845114 
569.010429  	63.173376 
569.974853  	62.591757 
570.939278  	62.069497 
571.903702  	61.357605 
572.868127  	60.579890 
573.832551  	60.116186 
574.796976  	59.918915 
575.761400  	59.459793 
576.725825  	59.485479 
577.690249  	59.522363 
578.654674  	59.806890 
579.619098  	60.274795 
580.583523  	60.759190 
581.547947  	61.785262 
582.512371  	62.834634 
583.476796  	63.636334 
584.441220  	64.623310 
585.405645  	65.633591 
586.370069  	66.720379 
587.334494  	67.597663 
588.298918  	68.276905 
589.263343  	68.808092 
590.227767  	69.275580 
591.192192  	69.604913 
592.156616  	69.964465 
593.121040  	70.571150 
594.085465  	71.071921 
595.049889  	71.225083 
596.014314  	71.361574 
596.978738  	71.486764 
597.943163  	71.749304 
598.907587  	72.058016 
599.872012  	72.136256 
600.836436  	72.272748 
601.800861  	72.541212 
602.765285  	72.784548 
603.729709  	72.926337 
604.694134  	72.956220 
605.658558  	73.016778 
606.622983  	73.046127 
607.587407  	72.968469 
608.551832  	73.069115 
609.516256  	73.295036 
610.480681  	73.356749 
611.445105  	73.293719 
612.409530  	73.594432 
613.373954  	73.752032 
614.338378  	73.390018 
615.302803  	73.344701 
616.267227  	73.184099 
617.231652  	73.274770 
618.196076  	73.443609 
619.160501  	73.247723 
620.124925  	73.101401 
621.089350  	73.217819 
622.053774  	73.331405 
623.018199  	73.257487 
623.982623  	73.123486 
624.947047  	73.180397 
625.911472  	73.358261 
626.875896  	73.313077 
627.840321  	73.181982 
628.804745  	73.223456 
629.769170  	73.256346 
630.733594  	73.010494 
631.698019  	73.057452 
632.662443  	73.253812 
633.626868  	73.151454 
634.591292  	73.030967 
635.555717  	72.755843 
636.520141  	72.880605 
637.484565  	72.925401 
638.448990  	72.835238 
639.413414  	72.690659 
640.377839  	72.602654 
641.342263  	72.539406 
642.306688  	72.318705 
643.271112  	72.206059 
644.235537  	71.982944 
645.199961  	71.629855 
646.164386  	71.500670 
647.128810  	71.378346 
648.093234  	71.214449 
649.057659  	71.104610 
650.022083  	70.937718 
650.986508  	70.750284 
651.950932  	70.482288 
652.915357  	70.141302 
653.879781  	69.838534 
654.844206  	69.612044 
655.808630  	69.337853 
656.773055  	69.025416 
657.737479  	68.834741 
658.701903  	68.506099 
659.666328  	68.175384 
660.630752  	67.802929 
661.595177  	67.509544 
662.559601  	67.281442 
663.524026  	67.028989 
664.488450  	66.765043 
665.452875  	66.381269 
666.417299  	65.987061 
667.381724  	65.580880 
668.346148  	65.446782 
669.310572  	65.267424 
670.274997  	64.877317 
671.239421  	64.517080 
672.203846  	64.297474 
673.168270  	64.066766 
674.132695  	63.587081 
675.097119  	63.283071 
676.061544  	63.191283 
677.025968  	62.979849 
677.990393  	62.716967 
678.954817  	62.531519 
679.919241  	62.313485 
680.883666  	62.222738 
681.848090  	62.296953 
682.812515  	62.419436 
683.776939  	62.315269 
684.741364  	62.261154 
685.705788  	62.201637 
686.670213  	62.370756 
687.634637  	62.698809 
688.599062  	63.030713 
689.563486  	63.379082 
690.527910  	63.762882 
691.492335  	64.166123 
692.456759  	64.628958 
693.421184  	65.151692 
694.385608  	65.871972 
695.350033  	66.430060 
696.314457  	66.841832 
697.278882  	67.301970 
698.243306  	67.765698 
699.207731  	68.219989 
700.172155  	68.631643 
701.136580  	68.982535 
702.101004  	69.436367 
703.065428  	69.892008 
704.029853  	70.160175 
704.994277  	70.323726 
705.958702  	70.673175 
706.923126  	70.910330 
707.887551  	71.219564 
708.851975  	71.566511 
709.816400  	71.700130 
710.780824  	71.828493 
711.745249  	71.930033 
712.709673  	72.123004 
713.674097  	72.284125 
714.638522  	72.403921 
715.602946  	72.414298 
716.567371  	72.381670 
717.531795  	72.467249 
718.496220  	72.583370 
719.460644  	72.616408 
720.425069  	72.690530 
721.389493  	72.697782 
722.353918  	72.640200 
723.318342  	72.592133 
724.282766  	72.558167 
725.247191  	72.522601 
726.211615  	72.470836 
727.176040  	72.388793 
728.140464  	72.335742 
729.104889  	72.412458 
730.069313  	72.647563 
731.033738  	73.143148 
731.998162  	73.837085 
732.962587  	74.563784 
733.927011  	75.287172 
734.891435  	76.064568 
735.855860  	76.892228 
736.820284  	77.713826 
737.784709  	78.486927 
738.749133  	79.088008 
739.713558  	79.572100 
740.677982  	80.029489 
741.642407  	80.481860 
742.606831  	80.824152 
743.571256  	81.047645 
744.535680  	81.195084 
745.500104  	81.412056 
746.464529  	81.632099 
747.428953  	81.717784 
748.393378  	81.816293 
749.357802  	81.880643 
750.322227  	81.943598 
751.286651  	82.009931 
752.251076  	82.132970 
753.215500  	82.333110 
754.179925  	82.407265 
755.144349  	82.471905 
756.108774  	82.651421 
757.073198  	82.867242 
758.037622  	82.953814 
759.002047  	82.907121 
759.966471  	83.072810 
760.930896  	83.259736 
761.895320  	83.355653 
762.859745  	83.585312 
763.824169  	83.735791 
764.788594  	83.859292 
765.753018  	83.964203 
766.717443  	84.032452 
767.681867  	84.109975 
768.646291  	84.268969 
769.610716  	84.450619 
770.575140  	84.525902 
771.539565  	84.619950 
772.503989  	84.724915 
773.468414  	84.849456 
774.432838  	84.969095 
775.397263  	85.128616 
776.361687  	85.344185 
777.326112  	85.338327 
778.290536  	85.465047 
779.254960  	85.676380 
780.219385  	85.954878 
781.183809  	86.013505 
782.148234  	85.967922 
783.112658  	86.138274 
784.077083  	86.298955 
785.041507  	86.378864 
786.005932  	86.354100 
786.970356  	86.455024 
787.934781  	86.376106 
788.899205  	86.480358 
789.863629  	86.649305 
790.828054  	86.650839 
791.792478  	86.568752 
792.756903  	86.648489 
793.721327  	86.690497 
794.685752  	86.642686 
795.650176  	86.668483 
796.614601  	86.818752 
797.579025  	86.990383 
798.543450  	86.989833 
799.507874  	87.032443 
800.472298  	87.310035 
801.436723  	87.470310 
802.401147  	87.565282 
803.365572  	87.714926 
804.329996  	87.919847 
805.294421  	88.031233 
806.258845  	88.130442 
807.223270  	88.200590 
808.187694  	88.217761 
809.152119  	88.307257 
810.116543  	88.443973 
811.080967  	88.467220 
812.045392  	88.498578 
813.009816  	88.600593 
813.974241  	88.765054 
814.938665  	88.906973 
815.903090  	89.053881 
816.867514  	89.064248 
817.831939  	89.122654 
818.796363  	89.267725 
819.760788  	89.374430 
820.725212  	89.452450 
821.689637  	89.500459 
822.654061  	89.560375 
823.618485  	89.658954 
824.582910  	89.652289 
825.547334  	89.619397 
826.511759  	89.642620 
827.476183  	89.749055 
828.440608  	89.860960 
829.405032  	89.849248 
830.369457  	89.928961 
831.333881  	90.075486 
832.298306  	90.156491 
833.262730  	90.099703 
834.227154  	90.062115 
835.191579  	90.175802 
836.156003  	90.256969 
837.120428  	90.314786 
838.084852  	90.270006 
839.049277  	90.232454 
840.013701  	90.283074 
840.978126  	90.329281 
841.942550  	90.423651 
842.906975  	90.511845 
843.871399  	90.490871 
844.835823  	90.434675 
845.800248  	90.495037 
846.764672  	90.591155 
847.729097  	90.719762 
848.693521  	90.697515 
849.657946  	90.679577 
850.622370  	90.697538 
851.586795  	90.692605 
852.551219  	90.671787 
853.515644  	90.726647 
854.480068  	90.799624 
855.444492  	90.818448 
856.408917  	90.812902 
857.373341  	90.868325 
858.337766  	90.955627 
859.302190  	90.956231 
860.266615  	90.940830 
861.231039  	90.931115 
862.195464  	90.938700 
863.159888  	90.989619 
864.124313  	91.045175 
865.088737  	91.087002 
866.053161  	91.089294 
867.017586  	91.031654 
867.982010  	91.031256 
868.946435  	91.118024 
869.910859  	91.143229 
870.875284  	91.097597 
871.839708  	91.050273 
872.804133  	90.979830 
873.768557  	90.984403 
874.732982  	90.938405 
875.697406  	90.890473 
876.661831  	90.885961 
877.626255  	90.936620 
878.590679  	90.949963 
879.555104  	90.915395 
880.519528  	90.914842 
881.483953  	90.898816 
882.448377  	90.859696 
883.412802  	90.868577 
884.377226  	90.891880 
885.341651  	90.887615 
886.306075  	90.843494 
887.270500  	90.805017 
888.234924  	90.817988 
889.199348  	90.754926 
890.163773  	90.699797 
891.128197  	90.692067 
892.092622  	90.643139 
893.057046  	90.508319 
894.021471  	90.458734 
894.985895  	90.503323 
895.950320  	90.356435 
896.914744  	90.150947 
897.879169  	90.028779 
898.843593  	89.841510 
899.808017  	89.583913 
900.772442  	89.308840 
901.736866  	88.938116 
902.701291  	88.582337 
903.665715  	88.247366 
904.630140  	87.914391 
905.594564  	87.704648 
906.558989  	87.728576 
907.523413  	87.982899 
908.487838  	88.361039 
909.452262  	88.703311 
910.416686  	88.972894 
911.381111  	89.150490 
912.345535  	89.168303 
913.309960  	89.116612 
914.274384  	89.064909 
915.238809  	88.996428 
916.203233  	88.878845 
917.167658  	88.713372 
918.132082  	88.564906 
919.096507  	88.451443 
920.060931  	88.343447 
921.025355  	88.187169 
921.989780  	87.933088 
922.954204  	87.617302 
923.918629  	87.295402 
924.883053  	86.957134 
925.847478  	86.579144 
926.811902  	86.070094 
927.776327  	85.515043 
928.740751  	84.966545 
929.705176  	84.276692 
930.669600  	83.428030 
931.634024  	82.611190 
932.598449  	81.905009 
933.562873  	81.321980 
934.527298  	81.055131 
935.491722  	81.218982 
936.456147  	81.898975 
937.420571  	82.945227 
938.384996  	84.030972 
939.349420  	85.044332 
940.313845  	86.001051 
941.278269  	86.814433 
942.242694  	87.448465 
943.207118  	87.959620 
944.171542  	88.335578 
945.135967  	88.666736 
946.100391  	88.927538 
947.064816  	89.106676 
948.029240  	89.280132 
948.993665  	89.456501 
949.958089  	89.558101 
950.922514  	89.663312 
951.886938  	89.829272 
952.851363  	89.923913 
953.815787  	89.953483 
954.780211  	90.055392 
955.744636  	90.183129 
956.709060  	90.235604 
957.673485  	90.251618 
958.637909  	90.293677 
959.602334  	90.330145 
960.566758  	90.375507 
961.531183  	90.410094 
962.495607  	90.450206 
963.460032  	90.532517 
964.424456  	90.575982 
965.388880  	90.553188 
966.353305  	90.554953 
967.317729  	90.601388 
968.282154  	90.638980 
969.246578  	90.640364 
970.211003  	90.644336 
971.175427  	90.619271 
972.139852  	90.594036 
973.104276  	90.593400 
974.068701  	90.593493 
975.033125  	90.585859 
975.997549  	90.575454 
976.961974  	90.539736 
977.926398  	90.516422 
978.890823  	90.485997 
979.855247  	90.419601 
980.819672  	90.326419 
981.784096  	90.270424 
982.748521  	90.256200 
983.712945  	90.134572 
984.677370  	89.944051 
985.641794  	89.822176 
986.606218  	89.748563 
987.570643  	89.716417 
988.535067  	89.696017 
989.499492  	89.727140 
990.463916  	89.717217 
991.428341  	89.659223 
992.392765  	89.573374 
993.357190  	89.490307 
994.321614  	89.457784 
995.286039  	89.421747 
996.250463  	89.377216 
997.214888  	89.320959 
998.179312  	89.289601 
999.143736  	89.225247 
1000.108161  	89.156822 
1001.072585  	89.101939 
1002.037010  	89.082539 
1003.001434  	89.028265 
1003.965859  	88.964342 
1004.930283  	88.926476 
1005.894708  	88.806783 
1006.859132  	88.666500 
1007.823557  	88.547219 
1008.787981  	88.446904 
1009.752405  	88.341114 
1010.716830  	88.245691 
1011.681254  	88.168594 
1012.645679  	88.149431 
1013.610103  	88.112217 
1014.574528  	88.009344 
1015.538952  	87.950931 
1016.503377  	87.963406 
1017.467801  	87.942185 
1018.432226  	87.941416 
1019.396650  	87.960453 
1020.361074  	87.972190 
1021.325499  	87.969710 
1022.289923  	87.949515 
1023.254348  	87.903272 
1024.218772  	87.804882 
1025.183197  	87.745140 
1026.147621  	87.728197 
1027.112046  	87.653838 
1028.076470  	87.564946 
1029.040895  	87.487395 
1030.005319  	87.389390 
1030.969743  	87.294696 
1031.934168  	87.257219 
1032.898592  	87.226454 
1033.863017  	87.124301 
1034.827441  	86.982861 
1035.791866  	86.896206 
1036.756290  	86.839887 
1037.720715  	86.766295 
1038.685139  	86.667108 
1039.649564  	86.666957 
1040.613988  	86.668625 
1041.578412  	86.630515 
1042.542837  	86.669714 
1043.507261  	86.739290 
1044.471686  	86.791148 
1045.436110  	86.858756 
1046.400535  	86.969727 
1047.364959  	87.064332 
1048.329384  	87.097479 
1049.293808  	87.156024 
1050.258233  	87.283766 
1051.222657  	87.378666 
1052.187081  	87.361182 
1053.151506  	87.327864 
1054.115930  	87.341472 
1055.080355  	87.358204 
1056.044779  	87.324274 
1057.009204  	87.223918 
1057.973628  	87.165607 
1058.938053  	87.126408 
1059.902477  	87.026672 
1060.866902  	86.898058 
1061.831326  	86.860574 
1062.795751  	86.840133 
1063.760175  	86.776045 
1064.724599  	86.732253 
1065.689024  	86.778702 
1066.653448  	86.891866 
1067.617873  	86.992305 
1068.582297  	87.123529 
1069.546722  	87.295585 
1070.511146  	87.473057 
1071.475571  	87.643256 
1072.439995  	87.783245 
1073.404420  	87.899940 
1074.368844  	87.948970 
1075.333268  	87.909581 
1076.297693  	87.911373 
1077.262117  	87.911048 
1078.226542  	87.899037 
1079.190966  	87.880218 
1080.155391  	87.836537 
1081.119815  	87.796176 
1082.084240  	87.766890 
1083.048664  	87.751919 
1084.013089  	87.710192 
1084.977513  	87.655722 
1085.941937  	87.546678 
1086.906362  	87.391269 
1087.870786  	87.260407 
1088.835211  	87.180477 
1089.799635  	87.106202 
1090.764060  	87.025678 
1091.728484  	86.975853 
1092.692909  	86.942653 
1093.657333  	86.879038 
1094.621758  	86.832075 
1095.586182  	86.854745 
1096.550606  	86.845204 
1097.515031  	86.815638 
1098.479455  	86.816269 
1099.443880  	86.849950 
1100.408304  	86.887277 
1101.372729  	86.865332 
1102.337153  	86.865494 
1103.301578  	86.895717 
1104.266002  	86.895951 
1105.230427  	86.931383 
1106.194851  	86.959928 
1107.159275  	86.953227 
1108.123700  	86.933974 
1109.088124  	86.934089 
1110.052549  	86.911710 
1111.016973  	86.906782 
1111.981398  	86.924945 
1112.945822  	86.942588 
1113.910247  	86.936685 
1114.874671  	86.917737 
1115.839096  	86.883046 
1116.803520  	86.854664 
1117.767945  	86.791711 
1118.732369  	86.716436 
1119.696793  	86.701283 
1120.661218  	86.653451 
1121.625642  	86.523375 
1122.590067  	86.409370 
1123.554491  	86.341220 
1124.518916  	86.219216 
1125.483340  	86.112035 
1126.447765  	86.027181 
1127.412189  	85.909941 
1128.376614  	85.741691 
1129.341038  	85.549767 
1130.305462  	85.360495 
1131.269887  	85.109328 
1132.234311  	84.745824 
1133.198736  	84.313064 
1134.163160  	83.833954 
1135.127585  	83.267488 
1136.092009  	82.686013 
1137.056434  	82.181302 
1138.020858  	81.851889 
1138.985283  	81.676373 
1139.949707  	81.609332 
1140.914131  	81.690362 
1141.878556  	81.822064 
1142.842980  	81.853610 
1143.807405  	81.852450 
1144.771829  	81.880218 
1145.736254  	81.889747 
1146.700678  	81.921974 
1147.665103  	81.988700 
1148.629527  	82.101520 
1149.593952  	82.292191 
1150.558376  	82.504014 
1151.522800  	82.735884 
1152.487225  	82.996985 
1153.451649  	83.274554 
1154.416074  	83.526314 
1155.380498  	83.740554 
1156.344923  	83.934257 
1157.309347  	84.070769 
1158.273772  	84.160359 
1159.238196  	84.169189 
1160.202621  	84.181768 
1161.167045  	84.180578 
1162.131469  	84.079388 
1163.095894  	83.924807 
1164.060318  	83.778881 
1165.024743  	83.599122 
1165.989167  	83.361059 
1166.953592  	83.112572 
1167.918016  	82.848721 
1168.882441  	82.531314 
1169.846865  	82.105540 
1170.811290  	81.621206 
1171.775714  	81.118138 
1172.740138  	80.594248 
1173.704563  	79.979783 
1174.668987  	79.250949 
1175.633412  	78.608225 
1176.597836  	78.063612 
1177.562261  	77.570682 
1178.526685  	77.223023 
1179.491110  	77.088684 
1180.455534  	77.096947 
1181.419959  	77.244236 
1182.384383  	77.483702 
1183.348808  	77.731007 
1184.313232  	77.989309 
1185.277656  	78.142349 
1186.242081  	78.223784 
1187.206505  	78.223565 
1188.170930  	78.047708 
1189.135354  	77.701117 
1190.099779  	77.225013 
1191.064203  	76.676842 
