##TITLE=No Description
##DATA TYPE=INFRARED SPECTRUM
##XUNITS=1/CM
##YUNITS=%T
400.236149  	123.528938 
401.200574  	105.118325 
402.164998  	88.370793 
403.129423  	91.152195 
404.093847  	101.431165 
405.058272  	93.795774 
406.022696  	88.773314 
406.987120  	89.977807 
407.951545  	94.667608 
408.915969  	96.225043 
409.880394  	90.820420 
410.844818  	88.836865 
411.809243  	94.102646 
412.773667  	91.627124 
413.738092  	84.377568 
414.702516  	76.888514 
415.666941  	78.576959 
416.631365  	83.221994 
417.595789  	88.518503 
418.560214  	91.974850 
419.524638  	88.818935 
420.489063  	85.133825 
421.453487  	84.985346 
422.417912  	86.227529 
423.382336  	84.373847 
424.346761  	81.689400 
425.311185  	78.214518 
426.275610  	79.785959 
427.240034  	83.340553 
428.204458  	86.027877 
429.168883  	84.510291 
430.133307  	82.501299 
431.097732  	81.810294 
432.062156  	80.141506 
433.026581  	78.846859 
433.991005  	80.396395 
434.955430  	81.298089 
435.919854  	81.036918 
436.884279  	82.113950 
437.848703  	82.341020 
438.813127  	81.834472 
439.777552  	82.415904 
440.741976  	82.504105 
441.706401  	81.859371 
442.670825  	82.470334 
443.635250  	81.667335 
444.599674  	80.177165 
445.564099  	80.427016 
446.528523  	81.175720 
447.492948  	80.274751 
448.457372  	81.052938 
449.421796  	79.941262 
450.386221  	78.177814 
451.350645  	78.406992 
452.315070  	78.325987 
453.279494  	77.863044 
454.243919  	78.520331 
455.208343  	78.266742 
456.172768  	77.448773 
457.137192  	77.782108 
458.101617  	78.040302 
459.066041  	78.012012 
460.030466  	77.722263 
460.994890  	77.802983 
461.959314  	77.964022 
462.923739  	77.873279 
463.888163  	77.438950 
464.852588  	77.222209 
465.817012  	77.999994 
466.781437  	77.718737 
467.745861  	77.168018 
468.710286  	77.149619 
469.674710  	76.291676 
470.639135  	75.736057 
471.603559  	75.884969 
472.567983  	76.850867 
473.532408  	76.603126 
474.496832  	75.251406 
475.461257  	75.806888 
476.425681  	76.480937 
477.390106  	77.067018 
478.354530  	77.506613 
479.318955  	76.193194 
480.283379  	75.061484 
481.247804  	75.123346 
482.212228  	75.203243 
483.176652  	75.884152 
484.141077  	76.754108 
485.105501  	76.024890 
486.069926  	75.306854 
487.034350  	75.163193 
487.998775  	75.114778 
488.963199  	75.437073 
489.927624  	75.565765 
490.892048  	74.944606 
491.856473  	74.541547 
492.820897  	75.346488 
493.785321  	75.088981 
494.749746  	74.361068 
495.714170  	73.738558 
496.678595  	73.773465 
497.643019  	73.911774 
498.607444  	73.959232 
499.571868  	73.726082 
500.536293  	73.809745 
501.500717  	73.689196 
502.465142  	73.021100 
503.429566  	73.433727 
504.393990  	73.086450 
505.358415  	72.924633 
506.322839  	72.747179 
507.287264  	72.303825 
508.251688  	72.688998 
509.216113  	73.059369 
510.180537  	72.757021 
511.144962  	72.722415 
512.109386  	72.985271 
513.073811  	72.777217 
514.038235  	72.396743 
515.002660  	71.876654 
515.967084  	71.350039 
516.931508  	71.458398 
517.895933  	71.731472 
518.860357  	71.461175 
519.824782  	70.878014 
520.789206  	70.851857 
521.753631  	71.027828 
522.718055  	71.076538 
523.682480  	71.004759 
524.646904  	70.886876 
525.611329  	70.475600 
526.575753  	70.121465 
527.540177  	70.275733 
528.504602  	70.329416 
529.469026  	70.054041 
530.433451  	69.768745 
531.397875  	69.373337 
532.362300  	68.987439 
533.326724  	69.141941 
534.291149  	69.088944 
535.255573  	69.170503 
536.219998  	69.529978 
537.184422  	70.323697 
538.148846  	70.600014 
539.113271  	70.869913 
540.077695  	71.033800 
541.042120  	71.282871 
542.006544  	71.646023 
542.970969  	71.714748 
543.935393  	71.611550 
544.899818  	71.297537 
545.864242  	71.420118 
546.828667  	71.226768 
547.793091  	70.760072 
548.757515  	70.702221 
549.721940  	70.854927 
550.686364  	70.819072 
551.650789  	70.990575 
552.615213  	70.555858 
553.579638  	70.618714 
554.544062  	70.532986 
555.508487  	70.049273 
556.472911  	69.464347 
557.437336  	68.930037 
558.401760  	68.942779 
559.366184  	69.066587 
560.330609  	68.372394 
561.295033  	67.805905 
562.259458  	67.351488 
563.223882  	66.744274 
564.188307  	66.304171 
565.152731  	66.249526 
566.117156  	65.816167 
567.081580  	65.100256 
568.046005  	64.436503 
569.010429  	63.901691 
569.974853  	63.468050 
570.939278  	62.743414 
571.903702  	62.072932 
572.868127  	61.548894 
573.832551  	61.101294 
574.796976  	60.976572 
575.761400  	60.291247 
576.725825  	60.123561 
577.690249  	60.407428 
578.654674  	60.708895 
579.619098  	61.100908 
580.583523  	61.563011 
581.547947  	62.632152 
582.512371  	63.852278 
583.476796  	64.709000 
584.441220  	65.542313 
585.405645  	66.494701 
586.370069  	67.540388 
587.334494  	68.324239 
588.298918  	68.867788 
589.263343  	69.231559 
590.227767  	69.830821 
591.192192  	70.147709 
592.156616  	70.351974 
593.121040  	70.922607 
594.085465  	71.351487 
595.049889  	71.629698 
596.014314  	71.957918 
596.978738  	72.130828 
597.943163  	72.215292 
598.907587  	72.272754 
599.872012  	72.231700 
600.836436  	72.450302 
601.800861  	72.797478 
602.765285  	72.814137 
603.729709  	72.881682 
604.694134  	73.001089 
605.658558  	73.177824 
606.622983  	73.339945 
607.587407  	73.264959 
608.551832  	73.218937 
609.516256  	73.376474 
610.480681  	73.309855 
611.445105  	73.382978 
612.409530  	73.577448 
613.373954  	73.554687 
614.338378  	73.337349 
615.302803  	73.260274 
616.267227  	73.041527 
617.231652  	73.334821 
618.196076  	73.569422 
619.160501  	73.539679 
620.124925  	73.357159 
621.089350  	73.520476 
622.053774  	73.589239 
623.018199  	73.828874 
623.982623  	73.674370 
624.947047  	73.406250 
625.911472  	73.180992 
626.875896  	73.285710 
627.840321  	73.443950 
628.804745  	73.430028 
629.769170  	73.259717 
630.733594  	73.130044 
631.698019  	73.283586 
632.662443  	73.254279 
633.626868  	72.943903 
634.591292  	72.790514 
635.555717  	72.720374 
636.520141  	72.853398 
637.484565  	72.874844 
638.448990  	72.774695 
639.413414  	72.524929 
640.377839  	72.563910 
641.342263  	72.590209 
642.306688  	72.296642 
643.271112  	72.116484 
644.235537  	72.021294 
645.199961  	71.807155 
646.164386  	71.749364 
647.128810  	71.622193 
648.093234  	71.365207 
649.057659  	71.121818 
650.022083  	70.982727 
650.986508  	70.886882 
651.950932  	70.635499 
652.915357  	70.361735 
653.879781  	70.156829 
654.844206  	69.984062 
655.808630  	69.744557 
656.773055  	69.385280 
657.737479  	69.176451 
658.701903  	68.864635 
659.666328  	68.468420 
660.630752  	68.128350 
661.595177  	67.919417 
662.559601  	67.683056 
663.524026  	67.409650 
664.488450  	67.091985 
665.452875  	66.821419 
666.417299  	66.555253 
667.381724  	66.489053 
668.346148  	66.860016 
669.310572  	66.103051 
670.274997  	65.398520 
671.239421  	65.078212 
672.203846  	64.973308 
673.168270  	64.676888 
674.132695  	64.296688 
675.097119  	64.015399 
676.061544  	63.810742 
677.025968  	63.642214 
677.990393  	63.543342 
678.954817  	63.439926 
679.919241  	63.349984 
680.883666  	63.350007 
681.848090  	63.207340 
682.812515  	63.066330 
683.776939  	62.954641 
684.741364  	62.996528 
685.705788  	63.071478 
686.670213  	63.295895 
687.634637  	63.470406 
688.599062  	63.696611 
689.563486  	64.084456 
690.527910  	64.562778 
691.492335  	65.028789 
692.456759  	65.431804 
693.421184  	65.889762 
694.385608  	66.538122 
695.350033  	67.047120 
696.314457  	67.498342 
697.278882  	67.929290 
698.243306  	68.287478 
699.207731  	68.719135 
700.172155  	69.221747 
701.136580  	69.488711 
702.101004  	69.850866 
703.065428  	70.316365 
704.029853  	70.636458 
704.994277  	70.830343 
705.958702  	71.118752 
706.923126  	71.447877 
707.887551  	71.736658 
708.851975  	71.953933 
709.816400  	72.064853 
710.780824  	72.212829 
711.745249  	72.352640 
712.709673  	72.509629 
713.674097  	72.596072 
714.638522  	72.775768 
715.602946  	72.956760 
716.567371  	72.964105 
717.531795  	73.006838 
718.496220  	73.037008 
719.460644  	73.032108 
720.425069  	73.160584 
721.389493  	73.176715 
722.353918  	73.075357 
723.318342  	73.047456 
724.282766  	73.038936 
725.247191  	72.971105 
726.211615  	72.881042 
727.176040  	72.812615 
728.140464  	72.780877 
729.104889  	72.878497 
730.069313  	73.121385 
731.033738  	73.597025 
731.998162  	74.217009 
732.962587  	74.911986 
733.927011  	75.556871 
734.891435  	76.309715 
735.855860  	77.066588 
736.820284  	77.848741 
737.784709  	78.534720 
738.749133  	79.052479 
739.713558  	79.511889 
740.677982  	80.001489 
741.642407  	80.330708 
742.606831  	80.667883 
743.571256  	80.975058 
744.535680  	81.141648 
745.500104  	81.304340 
746.464529  	81.427131 
747.428953  	81.492093 
748.393378  	81.630904 
749.357802  	81.610307 
750.322227  	81.566976 
751.286651  	81.640561 
752.251076  	81.830770 
753.215500  	82.050499 
754.179925  	82.240820 
755.144349  	82.340634 
756.108774  	82.484540 
757.073198  	82.572565 
758.037622  	82.621852 
759.002047  	82.644320 
759.966471  	82.706864 
760.930896  	82.782842 
761.895320  	82.902598 
762.859745  	83.117203 
763.824169  	83.282536 
764.788594  	83.326520 
765.753018  	83.367303 
766.717443  	83.539658 
767.681867  	83.740491 
768.646291  	83.829302 
769.610716  	83.942257 
770.575140  	84.106062 
771.539565  	84.294569 
772.503989  	84.333375 
773.468414  	84.411745 
774.432838  	84.581143 
775.397263  	84.731741 
776.361687  	84.822350 
777.326112  	84.954696 
778.290536  	84.933671 
779.254960  	84.927184 
780.219385  	85.262687 
781.183809  	85.727427 
782.148234  	85.377932 
783.112658  	85.137369 
784.077083  	85.281641 
785.041507  	85.421334 
786.005932  	85.667986 
786.970356  	85.605383 
787.934781  	85.625846 
788.899205  	85.774102 
789.863629  	85.796234 
790.828054  	85.766603 
791.792478  	85.846693 
792.756903  	85.897947 
793.721327  	85.893457 
794.685752  	85.839866 
795.650176  	85.921305 
796.614601  	86.055420 
797.579025  	86.176274 
798.543450  	86.148951 
799.507874  	86.275807 
800.472298  	86.524557 
801.436723  	86.697754 
802.401147  	86.821443 
803.365572  	86.961588 
804.329996  	87.093823 
805.294421  	87.218322 
806.258845  	87.270496 
807.223270  	87.402502 
808.187694  	87.475964 
809.152119  	87.529722 
810.116543  	87.558926 
811.080967  	87.612898 
812.045392  	87.723489 
813.009816  	87.796209 
813.974241  	87.825147 
814.938665  	87.975184 
815.903090  	88.037586 
816.867514  	88.036923 
817.831939  	88.171006 
818.796363  	88.321485 
819.760788  	88.391934 
820.725212  	88.438921 
821.689637  	88.440105 
822.654061  	88.521682 
823.618485  	88.568591 
824.582910  	88.586959 
825.547334  	88.599076 
826.511759  	88.619409 
827.476183  	88.687477 
828.440608  	88.763429 
829.405032  	88.821801 
830.369457  	88.817888 
831.333881  	88.923095 
832.298306  	89.049005 
833.262730  	89.080694 
834.227154  	89.157271 
835.191579  	89.120827 
836.156003  	89.131649 
837.120428  	89.194393 
838.084852  	89.145001 
839.049277  	89.180304 
840.013701  	89.223317 
840.978126  	89.194068 
841.942550  	89.228546 
842.906975  	89.267552 
843.871399  	89.295452 
844.835823  	89.306208 
845.800248  	89.292124 
846.764672  	89.331407 
847.729097  	89.483051 
848.693521  	89.425118 
849.657946  	89.439899 
850.622370  	89.515023 
851.586795  	89.552946 
852.551219  	89.490732 
853.515644  	89.492254 
854.480068  	89.588969 
855.444492  	89.577562 
856.408917  	89.514742 
857.373341  	89.575774 
858.337766  	89.662754 
859.302190  	89.693016 
860.266615  	89.674500 
861.231039  	89.671105 
862.195464  	89.702946 
863.159888  	89.681733 
864.124313  	89.706481 
865.088737  	89.723650 
866.053161  	89.727626 
867.017586  	89.724022 
867.982010  	89.727967 
868.946435  	89.778765 
869.910859  	89.796911 
870.875284  	89.726421 
871.839708  	89.698554 
872.804133  	89.745578 
873.768557  	89.762949 
874.732982  	89.730286 
875.697406  	89.680375 
876.661831  	89.646862 
877.626255  	89.604836 
878.590679  	89.585141 
879.555104  	89.540291 
880.519528  	89.490825 
881.483953  	89.465142 
882.448377  	89.518168 
883.412802  	89.558394 
884.377226  	89.558675 
885.341651  	89.530517 
886.306075  	89.463058 
887.270500  	89.429201 
888.234924  	89.477739 
889.199348  	89.402158 
890.163773  	89.325194 
891.128197  	89.359194 
892.092622  	89.350195 
893.057046  	89.226113 
894.021471  	89.097068 
894.985895  	89.054408 
895.950320  	88.950374 
896.914744  	88.784631 
897.879169  	88.687594 
898.843593  	88.536098 
899.808017  	88.287086 
900.772442  	88.009040 
901.736866  	87.659835 
902.701291  	87.324082 
903.665715  	87.026268 
904.630140  	86.708991 
905.594564  	86.526659 
906.558989  	86.598753 
907.523413  	86.852757 
908.487838  	87.114139 
909.452262  	87.444281 
910.416686  	87.756515 
911.381111  	87.900479 
912.345535  	87.871294 
913.309960  	87.814493 
914.274384  	87.780453 
915.238809  	87.712711 
916.203233  	87.578634 
917.167658  	87.457712 
918.132082  	87.323383 
919.096507  	87.189149 
920.060931  	87.073518 
921.025355  	86.927169 
921.989780  	86.666799 
922.954204  	86.403153 
923.918629  	86.130155 
924.883053  	85.828359 
925.847478  	85.482391 
926.811902  	85.063554 
927.776327  	84.581247 
928.740751  	83.995504 
929.705176  	83.341867 
930.669600  	82.596504 
931.634024  	81.855087 
932.598449  	81.193036 
933.562873  	80.670043 
934.527298  	80.443799 
935.491722  	80.608099 
936.456147  	81.255715 
937.420571  	82.201569 
938.384996  	83.166297 
939.349420  	84.082983 
940.313845  	84.967433 
941.278269  	85.758863 
942.242694  	86.365866 
943.207118  	86.759383 
944.171542  	87.110668 
945.135967  	87.395677 
946.100391  	87.582999 
947.064816  	87.788139 
948.029240  	87.970256 
948.993665  	88.123600 
949.958089  	88.267594 
950.922514  	88.381014 
951.886938  	88.498758 
952.851363  	88.566260 
953.815787  	88.583143 
954.780211  	88.663284 
955.744636  	88.792561 
956.709060  	88.858424 
957.673485  	88.867819 
958.637909  	88.898099 
959.602334  	88.935392 
960.566758  	88.973067 
961.531183  	88.991432 
962.495607  	88.987821 
963.460032  	89.039406 
964.424456  	89.092074 
965.388880  	89.065225 
966.353305  	89.049737 
967.317729  	89.125757 
968.282154  	89.159622 
969.246578  	89.135021 
970.211003  	89.185010 
971.175427  	89.205945 
972.139852  	89.119031 
973.104276  	89.070121 
974.068701  	89.085736 
975.033125  	89.083598 
975.997549  	89.059550 
976.961974  	89.044989 
977.926398  	89.023533 
978.890823  	88.984582 
979.855247  	88.927757 
980.819672  	88.845534 
981.784096  	88.812714 
982.748521  	88.814607 
983.712945  	88.705428 
984.677370  	88.530258 
985.641794  	88.389100 
986.606218  	88.312000 
987.570643  	88.275538 
988.535067  	88.262477 
989.499492  	88.273058 
990.463916  	88.289452 
991.428341  	88.267510 
992.392765  	88.203224 
993.357190  	88.131217 
994.321614  	88.072229 
995.286039  	88.008412 
996.250463  	87.955161 
997.214888  	87.907533 
998.179312  	87.882804 
999.143736  	87.822678 
1000.108161  	87.758704 
1001.072585  	87.731251 
1002.037010  	87.715667 
1003.001434  	87.642354 
1003.965859  	87.559254 
1004.930283  	87.505495 
1005.894708  	87.422525 
1006.859132  	87.336679 
1007.823557  	87.235809 
1008.787981  	87.136582 
1009.752405  	87.048077 
1010.716830  	86.933573 
1011.681254  	86.824097 
1012.645679  	86.809239 
1013.610103  	86.803899 
1014.574528  	86.732591 
1015.538952  	86.678638 
1016.503377  	86.718226 
1017.467801  	86.709945 
1018.432226  	86.666901 
1019.396650  	86.666289 
1020.361074  	86.695749 
1021.325499  	86.710122 
1022.289923  	86.650271 
1023.254348  	86.576098 
1024.218772  	86.513061 
1025.183197  	86.426179 
1026.147621  	86.354390 
1027.112046  	86.328527 
1028.076470  	86.285938 
1029.040895  	86.185257 
1030.005319  	86.094937 
1030.969743  	86.018858 
1031.934168  	85.993458 
1032.898592  	85.951392 
1033.863017  	85.849804 
1034.827441  	85.734918 
1035.791866  	85.645691 
1036.756290  	85.591009 
1037.720715  	85.550169 
1038.685139  	85.480199 
1039.649564  	85.436287 
1040.613988  	85.402215 
1041.578412  	85.392354 
1042.542837  	85.435671 
1043.507261  	85.532194 
1044.471686  	85.586301 
1045.436110  	85.601157 
1046.400535  	85.675359 
1047.364959  	85.776391 
1048.329384  	85.821126 
1049.293808  	85.871927 
1050.258233  	85.974780 
1051.222657  	86.058699 
1052.187081  	86.068452 
1053.151506  	86.047595 
1054.115930  	86.033679 
1055.080355  	86.017339 
1056.044779  	85.985987 
1057.009204  	85.908801 
1057.973628  	85.859970 
1058.938053  	85.829044 
1059.902477  	85.748166 
1060.866902  	85.633724 
1061.831326  	85.621838 
1062.795751  	85.596348 
1063.760175  	85.534116 
1064.724599  	85.507442 
1065.689024  	85.536224 
1066.653448  	85.599220 
1067.617873  	85.728384 
1068.582297  	85.863570 
1069.546722  	86.041329 
1070.511146  	86.212715 
1071.475571  	86.339474 
1072.439995  	86.424743 
1073.404420  	86.513551 
1074.368844  	86.603208 
1075.333268  	86.611390 
1076.297693  	86.547666 
1077.262117  	86.491702 
1078.226542  	86.545284 
1079.190966  	86.582215 
1080.155391  	86.526686 
1081.119815  	86.488650 
1082.084240  	86.468209 
1083.048664  	86.410052 
1084.013089  	86.379896 
1084.977513  	86.348330 
1085.941937  	86.239937 
1086.906362  	86.110277 
1087.870786  	86.042317 
1088.835211  	85.966650 
1089.799635  	85.880484 
1090.764060  	85.811197 
1091.728484  	85.768685 
1092.692909  	85.764155 
1093.657333  	85.742236 
1094.621758  	85.673080 
1095.586182  	85.642607 
1096.550606  	85.648469 
1097.515031  	85.659482 
1098.479455  	85.662686 
1099.443880  	85.635841 
1100.408304  	85.650205 
1101.372729  	85.662087 
1102.337153  	85.650171 
1103.301578  	85.665664 
1104.266002  	85.670773 
1105.230427  	85.690082 
1106.194851  	85.711016 
1107.159275  	85.725678 
1108.123700  	85.749686 
1109.088124  	85.744275 
1110.052549  	85.735553 
1111.016973  	85.746849 
1111.981398  	85.763251 
1112.945822  	85.734809 
1113.910247  	85.694753 
1114.874671  	85.680438 
1115.839096  	85.655208 
1116.803520  	85.607357 
1117.767945  	85.561118 
1118.732369  	85.519269 
1119.696793  	85.481699 
1120.661218  	85.406210 
1121.625642  	85.287655 
1122.590067  	85.202481 
1123.554491  	85.112946 
1124.518916  	84.983028 
1125.483340  	84.899299 
1126.447765  	84.818591 
1127.412189  	84.690688 
1128.376614  	84.519219 
1129.341038  	84.326030 
1130.305462  	84.124025 
1131.269887  	83.894474 
1132.234311  	83.578414 
1133.198736  	83.175276 
1134.163160  	82.717169 
1135.127585  	82.196655 
1136.092009  	81.638056 
1137.056434  	81.167320 
1138.020858  	80.871354 
1138.985283  	80.739331 
1139.949707  	80.699665 
1140.914131  	80.757878 
1141.878556  	80.861390 
1142.842980  	80.888842 
1143.807405  	80.886360 
1144.771829  	80.902125 
1145.736254  	80.902912 
1146.700678  	80.925092 
1147.665103  	80.955514 
1148.629527  	81.052046 
1149.593952  	81.215570 
1150.558376  	81.406924 
1151.522800  	81.609130 
1152.487225  	81.815249 
1153.451649  	82.034235 
1154.416074  	82.255389 
1155.380498  	82.434302 
1156.344923  	82.609011 
1157.309347  	82.772231 
1158.273772  	82.847135 
1159.238196  	82.823354 
1160.202621  	82.842048 
1161.167045  	82.819290 
1162.131469  	82.719322 
1163.095894  	82.569492 
1164.060318  	82.431135 
1165.024743  	82.271771 
1165.989167  	82.063203 
1166.953592  	81.830921 
1167.918016  	81.566959 
1168.882441  	81.248942 
1169.846865  	80.866579 
1170.811290  	80.433231 
1171.775714  	79.970412 
1172.740138  	79.466368 
1173.704563  	78.865660 
1174.668987  	78.188213 
1175.633412  	77.607991 
1176.597836  	77.094681 
1177.562261  	76.639430 
1178.526685  	76.342198 
1179.491110  	76.227961 
1180.455534  	76.265844 
1181.419959  	76.429358 
1182.384383  	76.631099 
1183.348808  	76.850862 
1184.313232  	77.080383 
1185.277656  	77.218259 
1186.242081  	77.263273 
1187.206505  	77.243811 
1188.170930  	77.077673 
1189.135354  	76.745984 
1190.099779  	76.299220 
1191.064203  	75.758285 
