##TITLE=No Description
##DATA TYPE=INFRARED SPECTRUM
##XUNITS=1/CM
##YUNITS=%T
400.236149  	109.054184 
401.200574  	89.069102 
402.164998  	84.496459 
403.129423  	76.477832 
404.093847  	67.120090 
405.058272  	75.267269 
406.022696  	85.203128 
406.987120  	82.269984 
407.951545  	86.598631 
408.915969  	85.431846 
409.880394  	92.472285 
410.844818  	93.284100 
411.809243  	96.027429 
412.773667  	94.492732 
413.738092  	86.773020 
414.702516  	77.978794 
415.666941  	80.175810 
416.631365  	88.567392 
417.595789  	90.418453 
418.560214  	93.573562 
419.524638  	90.507454 
420.489063  	85.062046 
421.453487  	83.644103 
422.417912  	83.300399 
423.382336  	84.364285 
424.346761  	83.473544 
425.311185  	79.714785 
426.275610  	79.136117 
427.240034  	82.089197 
428.204458  	84.091306 
429.168883  	84.174809 
430.133307  	83.757297 
431.097732  	83.112691 
432.062156  	80.880238 
433.026581  	79.452306 
433.991005  	80.679934 
434.955430  	82.125867 
435.919854  	79.891100 
436.884279  	78.051957 
437.848703  	78.974797 
438.813127  	80.555836 
439.777552  	80.915447 
440.741976  	81.215724 
441.706401  	82.467182 
442.670825  	82.721200 
443.635250  	83.267015 
444.599674  	85.960885 
445.564099  	85.749350 
446.528523  	84.106645 
447.492948  	83.312792 
448.457372  	84.281140 
449.421796  	84.953811 
450.386221  	84.900112 
451.350645  	84.361573 
452.315070  	83.775223 
453.279494  	83.582389 
454.243919  	83.928801 
455.208343  	84.205924 
456.172768  	84.200314 
457.137192  	83.603298 
458.101617  	83.651541 
459.066041  	84.928370 
460.030466  	85.164563 
460.994890  	85.155250 
461.959314  	84.918036 
462.923739  	84.810089 
463.888163  	84.637515 
464.852588  	84.385958 
465.817012  	85.059052 
466.781437  	84.936069 
467.745861  	83.567385 
468.710286  	83.059998 
469.674710  	82.991020 
470.639135  	82.796802 
471.603559  	82.704871 
472.567983  	83.112186 
473.532408  	84.155940 
474.496832  	84.123342 
475.461257  	84.069617 
476.425681  	84.053777 
477.390106  	84.448453 
478.354530  	84.748088 
479.318955  	84.132754 
480.283379  	83.841454 
481.247804  	84.255803 
482.212228  	83.633780 
483.176652  	84.174284 
484.141077  	84.482311 
485.105501  	83.699329 
486.069926  	82.981876 
487.034350  	83.712439 
487.998775  	84.514335 
488.963199  	84.846026 
489.927624  	84.993659 
490.892048  	83.960921 
491.856473  	82.565586 
492.820897  	83.000411 
493.785321  	82.951259 
494.749746  	82.120486 
495.714170  	81.882668 
496.678595  	81.924638 
497.643019  	81.375722 
498.607444  	81.048604 
499.571868  	80.450400 
500.536293  	80.278330 
501.500717  	79.316090 
502.465142  	78.546959 
503.429566  	79.388264 
504.393990  	79.044204 
505.358415  	78.801822 
506.322839  	78.550060 
507.287264  	78.797139 
508.251688  	80.197545 
509.216113  	81.753941 
510.180537  	82.325794 
511.144962  	82.832449 
512.109386  	83.628826 
513.073811  	84.010843 
514.038235  	84.265528 
515.002660  	84.043458 
515.967084  	83.707377 
516.931508  	82.950011 
517.895933  	83.536842 
518.860357  	84.305174 
519.824782  	84.016477 
520.789206  	84.394864 
521.753631  	84.950805 
522.718055  	85.142984 
523.682480  	85.019857 
524.646904  	84.840279 
525.611329  	84.766080 
526.575753  	84.811148 
527.540177  	85.326372 
528.504602  	85.771496 
529.469026  	86.080044 
530.433451  	86.131706 
531.397875  	85.983244 
532.362300  	86.044156 
533.326724  	86.294979 
534.291149  	86.268826 
535.255573  	86.151311 
536.219998  	86.224745 
537.184422  	86.866765 
538.148846  	86.815225 
539.113271  	86.953221 
540.077695  	86.925008 
541.042120  	87.264112 
542.006544  	87.289831 
542.970969  	87.170205 
543.935393  	87.033118 
544.899818  	87.096024 
545.864242  	87.058701 
546.828667  	87.184758 
547.793091  	86.937739 
548.757515  	87.274116 
549.721940  	87.559088 
550.686364  	87.579886 
551.650789  	87.976809 
552.615213  	87.770577 
553.579638  	87.861309 
554.544062  	87.995424 
555.508487  	88.004671 
556.472911  	87.833977 
557.437336  	87.590753 
558.401760  	87.885456 
559.366184  	88.129900 
560.330609  	87.911246 
561.295033  	87.742400 
562.259458  	87.737250 
563.223882  	87.533003 
564.188307  	87.682829 
565.152731  	88.120136 
566.117156  	88.108105 
567.081580  	87.706082 
568.046005  	87.665397 
569.010429  	87.509791 
569.974853  	87.528462 
570.939278  	87.727416 
571.903702  	87.775696 
572.868127  	87.702734 
573.832551  	87.562020 
574.796976  	87.459987 
575.761400  	86.958700 
576.725825  	87.289092 
577.690249  	87.615441 
578.654674  	87.938467 
579.619098  	88.087318 
580.583523  	87.696084 
581.547947  	87.827796 
582.512371  	88.064443 
583.476796  	88.164099 
584.441220  	88.085319 
585.405645  	88.128168 
586.370069  	88.396933 
587.334494  	88.352265 
588.298918  	88.338520 
589.263343  	88.324767 
590.227767  	88.283658 
591.192192  	87.881534 
592.156616  	87.440215 
593.121040  	87.843542 
594.085465  	88.029711 
595.049889  	87.997590 
596.014314  	87.977894 
596.978738  	88.079018 
597.943163  	88.128820 
598.907587  	88.013816 
599.872012  	87.589999 
600.836436  	87.715765 
601.800861  	88.002622 
602.765285  	88.015862 
603.729709  	88.037266 
604.694134  	88.125194 
605.658558  	88.124157 
606.622983  	88.058639 
607.587407  	87.857748 
608.551832  	87.942933 
609.516256  	88.082955 
610.480681  	87.887591 
611.445105  	87.687999 
612.409530  	87.784897 
613.373954  	87.873654 
614.338378  	87.816459 
615.302803  	87.526048 
616.267227  	87.246375 
617.231652  	87.458979 
618.196076  	87.669709 
619.160501  	87.587083 
620.124925  	87.329056 
621.089350  	87.248762 
622.053774  	87.266400 
623.018199  	87.612420 
623.982623  	87.405116 
624.947047  	87.150165 
625.911472  	86.926288 
626.875896  	87.069160 
627.840321  	86.934114 
628.804745  	86.897978 
629.769170  	86.487485 
630.733594  	85.738604 
631.698019  	85.302902 
632.662443  	85.340611 
633.626868  	85.697944 
634.591292  	86.177912 
635.555717  	86.104526 
636.520141  	86.569035 
637.484565  	86.952539 
638.448990  	87.035611 
639.413414  	86.925147 
640.377839  	86.830273 
641.342263  	86.727447 
642.306688  	86.538756 
643.271112  	86.523057 
644.235537  	86.526544 
645.199961  	86.542449 
646.164386  	86.719027 
647.128810  	86.698065 
648.093234  	86.538931 
649.057659  	86.469183 
650.022083  	86.459719 
650.986508  	86.391546 
651.950932  	86.236719 
652.915357  	86.033471 
653.879781  	85.894779 
654.844206  	85.945723 
655.808630  	85.935774 
656.773055  	85.757666 
657.737479  	85.739877 
658.701903  	85.653909 
659.666328  	85.499835 
660.630752  	85.414855 
661.595177  	85.366693 
662.559601  	85.247228 
663.524026  	85.073075 
664.488450  	84.955881 
665.452875  	84.795060 
666.417299  	84.760520 
667.381724  	85.206587 
668.346148  	84.963325 
669.310572  	83.844336 
670.274997  	83.781618 
671.239421  	83.802826 
672.203846  	83.634200 
673.168270  	83.367206 
674.132695  	82.956019 
675.097119  	82.583824 
676.061544  	82.123988 
677.025968  	81.784132 
677.990393  	81.385297 
678.954817  	80.986659 
679.919241  	80.776717 
680.883666  	80.707564 
681.848090  	80.702629 
682.812515  	80.743959 
683.776939  	80.592127 
684.741364  	80.263349 
685.705788  	79.837255 
686.670213  	79.669313 
687.634637  	79.376524 
688.599062  	78.932133 
689.563486  	78.475634 
690.527910  	78.158798 
691.492335  	77.671022 
692.456759  	77.073469 
693.421184  	76.341930 
694.385608  	75.644070 
695.350033  	74.761664 
696.314457  	73.688589 
697.278882  	72.428230 
698.243306  	71.180607 
699.207731  	69.884944 
700.172155  	68.570797 
701.136580  	67.172772 
702.101004  	66.045105 
703.065428  	65.083476 
704.029853  	64.091507 
704.994277  	62.848864 
705.958702  	61.698368 
706.923126  	60.460280 
707.887551  	59.062624 
708.851975  	57.655726 
709.816400  	56.102074 
710.780824  	54.410693 
711.745249  	52.673700 
712.709673  	50.861096 
713.674097  	48.813430 
714.638522  	46.704685 
715.602946  	44.551653 
716.567371  	42.319034 
717.531795  	40.204731 
718.496220  	38.288226 
719.460644  	36.851332 
720.425069  	35.972026 
721.389493  	35.737573 
722.353918  	36.070941 
723.318342  	36.988717 
724.282766  	38.645064 
725.247191  	41.157733 
726.211615  	44.194034 
727.176040  	47.347951 
728.140464  	50.380128 
729.104889  	53.372062 
730.069313  	56.298222 
731.033738  	59.293794 
731.998162  	62.332204 
732.962587  	65.505487 
733.927011  	68.555770 
734.891435  	71.585635 
735.855860  	74.530795 
736.820284  	77.386761 
737.784709  	79.999156 
738.749133  	82.366176 
739.713558  	84.560375 
740.677982  	86.364176 
741.642407  	87.773353 
742.606831  	88.894870 
743.571256  	89.661547 
744.535680  	90.214338 
745.500104  	90.739264 
746.464529  	91.171733 
747.428953  	91.355728 
748.393378  	91.589330 
749.357802  	91.730810 
750.322227  	91.737491 
751.286651  	91.763168 
752.251076  	91.838357 
753.215500  	91.931481 
754.179925  	91.892009 
755.144349  	91.753760 
756.108774  	91.762921 
757.073198  	91.722149 
758.037622  	91.659310 
759.002047  	91.579264 
759.966471  	91.567849 
760.930896  	91.528969 
761.895320  	91.453818 
762.859745  	91.416837 
763.824169  	91.414542 
764.788594  	91.299168 
765.753018  	91.181854 
766.717443  	91.108328 
767.681867  	90.955253 
768.646291  	90.703718 
769.610716  	90.638689 
770.575140  	90.516096 
771.539565  	90.393161 
772.503989  	90.135456 
773.468414  	89.954658 
774.432838  	89.876746 
775.397263  	89.757081 
776.361687  	89.568212 
777.326112  	89.442401 
778.290536  	89.384717 
779.254960  	89.409461 
780.219385  	89.280939 
781.183809  	89.060891 
782.148234  	88.523062 
783.112658  	88.392956 
784.077083  	88.050681 
785.041507  	87.646955 
786.005932  	87.346288 
786.970356  	86.926755 
787.934781  	86.426599 
788.899205  	86.031759 
789.863629  	85.645483 
790.828054  	85.158091 
791.792478  	84.686079 
792.756903  	84.495230 
793.721327  	84.632666 
794.685752  	85.002814 
795.650176  	85.692047 
796.614601  	86.495934 
797.579025  	87.218565 
798.543450  	87.488009 
799.507874  	87.572270 
800.472298  	87.729354 
801.436723  	87.846680 
802.401147  	87.794698 
803.365572  	87.732649 
804.329996  	87.749730 
805.294421  	87.804004 
806.258845  	87.798190 
807.223270  	87.755720 
808.187694  	87.743238 
809.152119  	87.728110 
810.116543  	87.764926 
811.080967  	87.834848 
812.045392  	87.782924 
813.009816  	87.723722 
813.974241  	87.808376 
814.938665  	87.874726 
815.903090  	87.794213 
816.867514  	87.690556 
817.831939  	87.688625 
818.796363  	87.710210 
819.760788  	87.651594 
820.725212  	87.546102 
821.689637  	87.397003 
822.654061  	87.331409 
823.618485  	87.217523 
824.582910  	86.955893 
825.547334  	86.679495 
826.511759  	86.511384 
827.476183  	86.345134 
828.440608  	86.126200 
829.405032  	85.873735 
830.369457  	85.601121 
831.333881  	85.391333 
832.298306  	85.144580 
833.262730  	84.772754 
834.227154  	84.418889 
835.191579  	84.080157 
836.156003  	83.720104 
837.120428  	83.274772 
838.084852  	82.754078 
839.049277  	82.299923 
840.013701  	81.810209 
840.978126  	81.299347 
841.942550  	80.838495 
842.906975  	80.238669 
843.871399  	79.559976 
844.835823  	78.999432 
845.800248  	78.542402 
846.764672  	78.220583 
847.729097  	78.224713 
848.693521  	78.398793 
849.657946  	78.793224 
850.622370  	79.289181 
851.586795  	79.751772 
852.551219  	80.162344 
853.515644  	80.534485 
854.480068  	80.801339 
855.444492  	80.853525 
856.408917  	81.006867 
857.373341  	81.268784 
858.337766  	81.527388 
859.302190  	81.761673 
860.266615  	81.834699 
861.231039  	81.740830 
862.195464  	81.624108 
863.159888  	81.382953 
864.124313  	80.942357 
865.088737  	80.287622 
866.053161  	79.349741 
867.017586  	78.060029 
867.982010  	76.257689 
868.946435  	73.803082 
869.910859  	70.740065 
870.875284  	67.514339 
871.839708  	65.673655 
872.804133  	66.529891 
873.768557  	69.496007 
874.732982  	72.795968 
875.697406  	75.416238 
876.661831  	77.311844 
877.626255  	78.826506 
878.590679  	80.139483 
879.555104  	81.266474 
880.519528  	82.289205 
881.483953  	83.180640 
882.448377  	84.031601 
883.412802  	84.851930 
884.377226  	85.530761 
885.341651  	86.015003 
886.306075  	86.430452 
887.270500  	86.778545 
888.234924  	87.044939 
889.199348  	87.156199 
890.163773  	87.202569 
891.128197  	87.288515 
892.092622  	87.306942 
893.057046  	87.229555 
894.021471  	87.216920 
894.985895  	87.240735 
895.950320  	87.136463 
896.914744  	87.063604 
897.879169  	87.099016 
898.843593  	87.101191 
899.808017  	87.133469 
900.772442  	87.232970 
901.736866  	87.327011 
902.701291  	87.519557 
903.665715  	87.698762 
904.630140  	87.814398 
905.594564  	87.951767 
906.558989  	88.246385 
907.523413  	88.515322 
908.487838  	88.666132 
909.452262  	88.808757 
910.416686  	89.051910 
911.381111  	89.282130 
912.345535  	89.314991 
913.309960  	89.355686 
914.274384  	89.462646 
915.238809  	89.518790 
916.203233  	89.533924 
917.167658  	89.594282 
918.132082  	89.601172 
919.096507  	89.643047 
920.060931  	89.735659 
921.025355  	89.757965 
921.989780  	89.683962 
922.954204  	89.593408 
923.918629  	89.568907 
924.883053  	89.584145 
925.847478  	89.565417 
926.811902  	89.516282 
927.776327  	89.497274 
928.740751  	89.425146 
929.705176  	89.388326 
930.669600  	89.352449 
931.634024  	89.276583 
932.598449  	89.249240 
933.562873  	89.208684 
934.527298  	89.158399 
935.491722  	89.019668 
936.456147  	88.941886 
937.420571  	88.953718 
938.384996  	88.868744 
939.349420  	88.741687 
940.313845  	88.657614 
941.278269  	88.558146 
942.242694  	88.479987 
943.207118  	88.381378 
944.171542  	88.303704 
945.135967  	88.192086 
946.100391  	88.020545 
947.064816  	87.897893 
948.029240  	87.809803 
948.993665  	87.660485 
949.958089  	87.470372 
950.922514  	87.311434 
951.886938  	87.187047 
952.851363  	86.982867 
953.815787  	86.730819 
954.780211  	86.527508 
955.744636  	86.360249 
956.709060  	86.131925 
957.673485  	85.844249 
958.637909  	85.527402 
959.602334  	85.193423 
960.566758  	84.875718 
961.531183  	84.485894 
962.495607  	84.063525 
963.460032  	83.677314 
964.424456  	83.238468 
965.388880  	82.723793 
966.353305  	82.246853 
967.317729  	81.877562 
968.282154  	81.491486 
969.246578  	81.092080 
970.211003  	80.845444 
971.175427  	80.758398 
972.139852  	80.783910 
973.104276  	81.017135 
974.068701  	81.380738 
975.033125  	81.817922 
975.997549  	82.321836 
976.961974  	82.792995 
977.926398  	83.229196 
978.890823  	83.643787 
979.855247  	84.007510 
980.819672  	84.308862 
981.784096  	84.579138 
982.748521  	84.821942 
983.712945  	84.960300 
984.677370  	84.980786 
985.641794  	85.002429 
986.606218  	85.004805 
987.570643  	84.961443 
988.535067  	84.951483 
989.499492  	85.014486 
990.463916  	85.092006 
991.428341  	85.127480 
992.392765  	85.138520 
993.357190  	85.165715 
994.321614  	85.184543 
995.286039  	85.149456 
996.250463  	85.060642 
997.214888  	84.958940 
998.179312  	84.853711 
999.143736  	84.643911 
1000.108161  	84.419126 
1001.072585  	84.228395 
1002.037010  	84.037303 
1003.001434  	83.762995 
1003.965859  	83.416818 
1004.930283  	83.056355 
1005.894708  	82.559182 
1006.859132  	81.941723 
1007.823557  	81.221674 
1008.787981  	80.367556 
1009.752405  	79.341498 
1010.716830  	78.022571 
1011.681254  	76.362722 
1012.645679  	74.338986 
1013.610103  	71.839798 
1014.574528  	69.122646 
1015.538952  	66.697871 
1016.503377  	64.971940 
1017.467801  	64.161129 
1018.432226  	64.352495 
1019.396650  	65.348198 
1020.361074  	66.761776 
1021.325499  	68.255643 
1022.289923  	69.640804 
1023.254348  	70.992119 
1024.218772  	72.597739 
1025.183197  	74.535326 
1026.147621  	76.610882 
1027.112046  	78.466203 
1028.076470  	79.802012 
1029.040895  	80.595526 
1030.005319  	80.983707 
1030.969743  	81.122582 
1031.934168  	81.203624 
1032.898592  	81.211183 
1033.863017  	81.067042 
1034.827441  	80.859391 
1035.791866  	80.636892 
1036.756290  	80.413346 
1037.720715  	80.219069 
1038.685139  	80.035576 
1039.649564  	79.842610 
1040.613988  	79.659502 
1041.578412  	79.502519 
1042.542837  	79.448376 
1043.507261  	79.451029 
1044.471686  	79.415194 
1045.436110  	79.386387 
1046.400535  	79.484179 
1047.364959  	79.594772 
1048.329384  	79.659035 
1049.293808  	79.785553 
1050.258233  	79.995999 
1051.222657  	80.134837 
1052.187081  	80.187154 
1053.151506  	80.248454 
1054.115930  	80.358891 
1055.080355  	80.367954 
1056.044779  	80.286304 
1057.009204  	80.143408 
1057.973628  	80.007111 
1058.938053  	79.814403 
1059.902477  	79.504571 
1060.866902  	79.144013 
1061.831326  	78.779558 
1062.795751  	78.345770 
1063.760175  	77.810749 
1064.724599  	77.239558 
1065.689024  	76.669879 
1066.653448  	76.090872 
1067.617873  	75.403680 
1068.582297  	74.608824 
1069.546722  	73.803837 
1070.511146  	72.959250 
1071.475571  	72.036832 
1072.439995  	71.029752 
1073.404420  	69.955533 
1074.368844  	68.796489 
1075.333268  	67.498730 
1076.297693  	66.121396 
1077.262117  	64.717863 
1078.226542  	63.329284 
1079.190966  	61.944780 
1080.155391  	60.555616 
1081.119815  	59.246329 
1082.084240  	58.094557 
1083.048664  	57.086962 
1084.013089  	56.231293 
1084.977513  	55.489076 
1085.941937  	54.764793 
1086.906362  	54.095944 
1087.870786  	53.543711 
1088.835211  	53.041904 
1089.799635  	52.567925 
1090.764060  	52.145930 
1091.728484  	51.799029 
1092.692909  	51.504419 
1093.657333  	51.195330 
1094.621758  	50.923023 
1095.586182  	50.837122 
1096.550606  	50.874698 
1097.515031  	50.961693 
1098.479455  	51.126328 
1099.443880  	51.430693 
1100.408304  	51.833416 
1101.372729  	52.275733 
1102.337153  	52.819681 
1103.301578  	53.405294 
1104.266002  	54.010756 
1105.230427  	54.685236 
1106.194851  	55.457009 
1107.159275  	56.235870 
1108.123700  	56.959277 
1109.088124  	57.597693 
1110.052549  	58.145286 
1111.016973  	58.578409 
1111.981398  	58.913638 
1112.945822  	59.200374 
1113.910247  	59.436399 
1114.874671  	59.504525 
1115.839096  	59.396891 
1116.803520  	59.225749 
1117.767945  	59.040083 
1118.732369  	58.917356 
1119.696793  	58.920184 
1120.661218  	58.992579 
1121.625642  	59.155895 
1122.590067  	59.409935 
1123.554491  	59.713848 
1124.518916  	60.095552 
1125.483340  	60.591413 
1126.447765  	61.155665 
1127.412189  	61.811769 
1128.376614  	62.565387 
1129.341038  	63.410039 
1130.305462  	64.389200 
1131.269887  	65.515319 
1132.234311  	66.706353 
1133.198736  	67.983536 
1134.163160  	69.331951 
1135.127585  	70.678893 
1136.092009  	72.036055 
1137.056434  	73.409388 
1138.020858  	74.747878 
1138.985283  	76.018243 
1139.949707  	77.187756 
1140.914131  	78.277646 
1141.878556  	79.282948 
1142.842980  	80.163435 
1143.807405  	81.020097 
1144.771829  	81.877934 
1145.736254  	82.648624 
1146.700678  	83.305017 
1147.665103  	83.889415 
1148.629527  	84.473873 
1149.593952  	85.015437 
1150.558376  	85.497415 
1151.522800  	85.911454 
1152.487225  	86.283307 
1153.451649  	86.645791 
1154.416074  	86.958757 
1155.380498  	87.199353 
1156.344923  	87.413368 
1157.309347  	87.623133 
1158.273772  	87.794189 
1159.238196  	87.893512 
1160.202621  	88.012286 
1161.167045  	88.121765 
1162.131469  	88.115683 
1163.095894  	88.087169 
1164.060318  	88.065156 
1165.024743  	87.975301 
1165.989167  	87.817401 
1166.953592  	87.613935 
1167.918016  	87.331876 
1168.882441  	86.933292 
1169.846865  	86.483238 
1170.811290  	86.098839 
1171.775714  	85.785930 
1172.740138  	85.566293 
1173.704563  	85.388741 
1174.668987  	85.257498 
1175.633412  	85.337214 
1176.597836  	85.489206 
1177.562261  	85.658884 
1178.526685  	85.878293 
1179.491110  	86.098234 
1180.455534  	86.305737 
1181.419959  	86.548237 
1182.384383  	86.750601 
1183.348808  	86.928476 
1184.313232  	87.091430 
1185.277656  	87.177115 
1186.242081  	87.195060 
1187.206505  	87.196180 
1188.170930  	87.176862 
1189.135354  	87.086015 
1190.099779  	86.958729 
1191.064203  	86.849836 
