##TITLE=No Description
##DATA TYPE=INFRARED SPECTRUM
##XUNITS=1/CM
##YUNITS=%T
400.236149  	119.939217 
401.200574  	104.801762 
402.164998  	93.488230 
403.129423  	89.215734 
404.093847  	92.228465 
405.058272  	104.999328 
406.022696  	102.714674 
406.987120  	101.397752 
407.951545  	110.994594 
408.915969  	103.483711 
409.880394  	100.299525 
410.844818  	107.365053 
411.809243  	109.702350 
412.773667  	107.376754 
413.738092  	98.584583 
414.702516  	85.066601 
415.666941  	83.499608 
416.631365  	92.381569 
417.595789  	96.857809 
418.560214  	96.864270 
419.524638  	96.365638 
420.489063  	93.558805 
421.453487  	87.986326 
422.417912  	85.701167 
423.382336  	86.286150 
424.346761  	84.880236 
425.311185  	82.948225 
426.275610  	85.580447 
427.240034  	86.409776 
428.204458  	87.181182 
429.168883  	86.889165 
430.133307  	85.857771 
431.097732  	85.151033 
432.062156  	83.473220 
433.026581  	81.878377 
433.991005  	82.002328 
434.955430  	82.350738 
435.919854  	82.248696 
436.884279  	83.010391 
437.848703  	84.217021 
438.813127  	83.876953 
439.777552  	83.416328 
440.741976  	83.430170 
441.706401  	85.709735 
442.670825  	86.984539 
443.635250  	84.478183 
444.599674  	84.126186 
445.564099  	85.721269 
446.528523  	86.156869 
447.492948  	86.415015 
448.457372  	87.852154 
449.421796  	86.892250 
450.386221  	85.667300 
451.350645  	86.641072 
452.315070  	87.318005 
453.279494  	86.087507 
454.243919  	85.983165 
455.208343  	86.161091 
456.172768  	86.090373 
457.137192  	86.584331 
458.101617  	86.494326 
459.066041  	86.081690 
460.030466  	86.022434 
460.994890  	86.393215 
461.959314  	87.044185 
462.923739  	86.832770 
463.888163  	86.106357 
464.852588  	86.139353 
465.817012  	86.580325 
466.781437  	86.537269 
467.745861  	85.671517 
468.710286  	85.235959 
469.674710  	84.573251 
470.639135  	84.857789 
471.603559  	85.161829 
472.567983  	85.293517 
473.532408  	85.935387 
474.496832  	85.418341 
475.461257  	85.009082 
476.425681  	84.428032 
477.390106  	85.135229 
478.354530  	85.964939 
479.318955  	85.141779 
480.283379  	84.452350 
481.247804  	85.093167 
482.212228  	85.092544 
483.176652  	85.033874 
484.141077  	85.331053 
485.105501  	84.937837 
486.069926  	84.293779 
487.034350  	84.554332 
487.998775  	84.983594 
488.963199  	85.103773 
489.927624  	85.073879 
490.892048  	84.427020 
491.856473  	84.056828 
492.820897  	84.283225 
493.785321  	84.171172 
494.749746  	83.252308 
495.714170  	83.136705 
496.678595  	83.213889 
497.643019  	83.018296 
498.607444  	82.998510 
499.571868  	82.510134 
500.536293  	82.115112 
501.500717  	81.135111 
502.465142  	80.479048 
503.429566  	81.126391 
504.393990  	80.835810 
505.358415  	80.151533 
506.322839  	79.554475 
507.287264  	79.999233 
508.251688  	81.315608 
509.216113  	82.737399 
510.180537  	83.493416 
511.144962  	84.296948 
512.109386  	85.142043 
513.073811  	85.119240 
514.038235  	85.186303 
515.002660  	85.525891 
515.967084  	85.207347 
516.931508  	85.018668 
517.895933  	85.537133 
518.860357  	85.736134 
519.824782  	85.182014 
520.789206  	85.558385 
521.753631  	86.100084 
522.718055  	86.068339 
523.682480  	85.890676 
524.646904  	85.622101 
525.611329  	85.269167 
526.575753  	85.473349 
527.540177  	86.385058 
528.504602  	86.845074 
529.469026  	86.678555 
530.433451  	86.646962 
531.397875  	86.924237 
532.362300  	87.073590 
533.326724  	87.427072 
534.291149  	87.430294 
535.255573  	86.959573 
536.219998  	87.004327 
537.184422  	87.843553 
538.148846  	87.837780 
539.113271  	87.819167 
540.077695  	87.987357 
541.042120  	88.260032 
542.006544  	88.409323 
542.970969  	88.386846 
543.935393  	88.577929 
544.899818  	88.480416 
545.864242  	88.178101 
546.828667  	88.221999 
547.793091  	88.229351 
548.757515  	88.290268 
549.721940  	88.706433 
550.686364  	88.939086 
551.650789  	89.209214 
552.615213  	89.002123 
553.579638  	88.948350 
554.544062  	88.902590 
555.508487  	89.042307 
556.472911  	89.080682 
557.437336  	88.773436 
558.401760  	88.753019 
559.366184  	89.128754 
560.330609  	89.151898 
561.295033  	89.150534 
562.259458  	89.169937 
563.223882  	88.782229 
564.188307  	88.685724 
565.152731  	89.124324 
566.117156  	89.122945 
567.081580  	88.786789 
568.046005  	88.805444 
569.010429  	88.875611 
569.974853  	88.798531 
570.939278  	88.830738 
571.903702  	89.012086 
572.868127  	88.985989 
573.832551  	88.683642 
574.796976  	88.681383 
575.761400  	88.436633 
576.725825  	88.638641 
577.690249  	88.741160 
578.654674  	88.807257 
579.619098  	88.867658 
580.583523  	88.857483 
581.547947  	89.073999 
582.512371  	89.231793 
583.476796  	89.035824 
584.441220  	88.785740 
585.405645  	88.879065 
586.370069  	89.360076 
587.334494  	89.427218 
588.298918  	89.253515 
589.263343  	89.180030 
590.227767  	89.244552 
591.192192  	88.909802 
592.156616  	88.665959 
593.121040  	88.974610 
594.085465  	89.270572 
595.049889  	89.216039 
596.014314  	89.169548 
596.978738  	89.208737 
597.943163  	89.222839 
598.907587  	89.141868 
599.872012  	88.721195 
600.836436  	88.781405 
601.800861  	89.069943 
602.765285  	89.009372 
603.729709  	89.048700 
604.694134  	89.161405 
605.658558  	89.255759 
606.622983  	89.240350 
607.587407  	88.972937 
608.551832  	88.941024 
609.516256  	89.028137 
610.480681  	88.912728 
611.445105  	88.856386 
612.409530  	88.979445 
613.373954  	89.162575 
614.338378  	88.890784 
615.302803  	88.468223 
616.267227  	88.504791 
617.231652  	88.794589 
618.196076  	88.708609 
619.160501  	88.639440 
620.124925  	88.398694 
621.089350  	88.398898 
622.053774  	88.517432 
623.018199  	88.612410 
623.982623  	88.392147 
624.947047  	88.196613 
625.911472  	88.005101 
626.875896  	88.025827 
627.840321  	87.930513 
628.804745  	87.800007 
629.769170  	87.331069 
630.733594  	86.657737 
631.698019  	86.334224 
632.662443  	86.327642 
633.626868  	86.656171 
634.591292  	87.307106 
635.555717  	87.573387 
636.520141  	87.880021 
637.484565  	87.940616 
638.448990  	88.040071 
639.413414  	88.043562 
640.377839  	87.998116 
641.342263  	87.835392 
642.306688  	87.608147 
643.271112  	87.617591 
644.235537  	87.623515 
645.199961  	87.474215 
646.164386  	87.530130 
647.128810  	87.583033 
648.093234  	87.442823 
649.057659  	87.182023 
650.022083  	87.021382 
650.986508  	87.047533 
651.950932  	86.938833 
652.915357  	86.822210 
653.879781  	86.769566 
654.844206  	86.755003 
655.808630  	86.677564 
656.773055  	86.548133 
657.737479  	86.542543 
658.701903  	86.294363 
659.666328  	86.142498 
660.630752  	86.143889 
661.595177  	86.089104 
662.559601  	85.925273 
663.524026  	85.848105 
664.488450  	85.872285 
665.452875  	85.848488 
666.417299  	85.727494 
667.381724  	85.457924 
668.346148  	84.213026 
669.310572  	84.170295 
670.274997  	84.410825 
671.239421  	84.396718 
672.203846  	84.324164 
673.168270  	84.155158 
674.132695  	83.679913 
675.097119  	83.273805 
676.061544  	82.800313 
677.025968  	82.345322 
677.990393  	81.927643 
678.954817  	81.674304 
679.919241  	81.451857 
680.883666  	81.230046 
681.848090  	81.218303 
682.812515  	81.255055 
683.776939  	81.012487 
684.741364  	80.719956 
685.705788  	80.486722 
686.670213  	80.413458 
687.634637  	80.034793 
688.599062  	79.526875 
689.563486  	79.137972 
690.527910  	78.715672 
691.492335  	78.116848 
692.456759  	77.438411 
693.421184  	76.736347 
694.385608  	76.118613 
695.350033  	75.234469 
696.314457  	74.223614 
697.278882  	73.035550 
698.243306  	71.569304 
699.207731  	70.042926 
700.172155  	68.669010 
701.136580  	67.220908 
702.101004  	66.003473 
703.065428  	64.962651 
704.029853  	63.903899 
704.994277  	62.723021 
705.958702  	61.516578 
706.923126  	60.157594 
707.887551  	58.705671 
708.851975  	57.093276 
709.816400  	55.300198 
710.780824  	53.508460 
711.745249  	51.716428 
712.709673  	49.675496 
713.674097  	47.382759 
714.638522  	45.050161 
715.602946  	42.724356 
716.567371  	40.312182 
717.531795  	38.120686 
718.496220  	36.181807 
719.460644  	34.738171 
720.425069  	33.828335 
721.389493  	33.687353 
722.353918  	34.151160 
723.318342  	35.266994 
724.282766  	37.220043 
725.247191  	40.081193 
726.211615  	43.307798 
727.176040  	46.606241 
728.140464  	49.667952 
729.104889  	52.688282 
730.069313  	55.733342 
731.033738  	58.870530 
731.998162  	62.026609 
732.962587  	65.153468 
733.927011  	68.280534 
734.891435  	71.473519 
735.855860  	74.560976 
736.820284  	77.519678 
737.784709  	80.218530 
738.749133  	82.693819 
739.713558  	84.842871 
740.677982  	86.645904 
741.642407  	88.034185 
742.606831  	89.228380 
743.571256  	90.179101 
744.535680  	90.773191 
745.500104  	91.252474 
746.464529  	91.670201 
747.428953  	91.943184 
748.393378  	92.165625 
749.357802  	92.185212 
750.322227  	92.232288 
751.286651  	92.307807 
752.251076  	92.383630 
753.215500  	92.451995 
754.179925  	92.492688 
755.144349  	92.410845 
756.108774  	92.461185 
757.073198  	92.446018 
758.037622  	92.307808 
759.002047  	92.210075 
759.966471  	92.240133 
760.930896  	92.126528 
761.895320  	92.039302 
762.859745  	92.089277 
763.824169  	92.115573 
764.788594  	92.030396 
765.753018  	91.866561 
766.717443  	91.697170 
767.681867  	91.560108 
768.646291  	91.365013 
769.610716  	91.227250 
770.575140  	91.116984 
771.539565  	91.041875 
772.503989  	90.858837 
773.468414  	90.737922 
774.432838  	90.631460 
775.397263  	90.518009 
776.361687  	90.340415 
777.326112  	90.238843 
778.290536  	90.176941 
779.254960  	90.162525 
780.219385  	89.837146 
781.183809  	89.640308 
782.148234  	89.365523 
783.112658  	89.238538 
784.077083  	89.001564 
785.041507  	88.583106 
786.005932  	88.217292 
786.970356  	87.632362 
787.934781  	87.099498 
788.899205  	86.700031 
789.863629  	86.293773 
790.828054  	85.755114 
791.792478  	85.228035 
792.756903  	84.956985 
793.721327  	85.130968 
794.685752  	85.585261 
795.650176  	86.257777 
796.614601  	87.098302 
797.579025  	87.820934 
798.543450  	88.082601 
799.507874  	88.162215 
800.472298  	88.266970 
801.436723  	88.338351 
802.401147  	88.354678 
803.365572  	88.400686 
804.329996  	88.365208 
805.294421  	88.367073 
806.258845  	88.360977 
807.223270  	88.383093 
808.187694  	88.357841 
809.152119  	88.356792 
810.116543  	88.354052 
811.080967  	88.263208 
812.045392  	88.270842 
813.009816  	88.343984 
813.974241  	88.373356 
814.938665  	88.388128 
815.903090  	88.444448 
816.867514  	88.419330 
817.831939  	88.321967 
818.796363  	88.299227 
819.760788  	88.231290 
820.725212  	88.221864 
821.689637  	88.131549 
822.654061  	87.974497 
823.618485  	87.853731 
824.582910  	87.673998 
825.547334  	87.452844 
826.511759  	87.274935 
827.476183  	87.131345 
828.440608  	86.966296 
829.405032  	86.693258 
830.369457  	86.337403 
831.333881  	86.089422 
832.298306  	85.861230 
833.262730  	85.515199 
834.227154  	85.116228 
835.191579  	84.774466 
836.156003  	84.375233 
837.120428  	83.863234 
838.084852  	83.378322 
839.049277  	82.914969 
840.013701  	82.439875 
840.978126  	81.949239 
841.942550  	81.481188 
842.906975  	80.922227 
843.871399  	80.213997 
844.835823  	79.494075 
845.800248  	78.930308 
846.764672  	78.628453 
847.729097  	78.638627 
848.693521  	78.792981 
849.657946  	79.163524 
850.622370  	79.676496 
851.586795  	80.196508 
852.551219  	80.574954 
853.515644  	80.846845 
854.480068  	81.092152 
855.444492  	81.304221 
856.408917  	81.465266 
857.373341  	81.636694 
858.337766  	81.900671 
859.302190  	82.136322 
860.266615  	82.177812 
861.231039  	82.144684 
862.195464  	82.013114 
863.159888  	81.726240 
864.124313  	81.271661 
865.088737  	80.551347 
866.053161  	79.628431 
867.017586  	78.236759 
867.982010  	76.298523 
868.946435  	73.788851 
869.910859  	70.539807 
870.875284  	67.032683 
871.839708  	65.015897 
872.804133  	65.994354 
873.768557  	69.263285 
874.732982  	72.811023 
875.697406  	75.601319 
876.661831  	77.654633 
877.626255  	79.207838 
878.590679  	80.524533 
879.555104  	81.740067 
880.519528  	82.782832 
881.483953  	83.700230 
882.448377  	84.587409 
883.412802  	85.400837 
884.377226  	86.100578 
885.341651  	86.635682 
886.306075  	87.026029 
887.270500  	87.332928 
888.234924  	87.617533 
889.199348  	87.749050 
890.163773  	87.825638 
891.128197  	87.933030 
892.092622  	87.952516 
893.057046  	87.837760 
894.021471  	87.759122 
894.985895  	87.783807 
895.950320  	87.724554 
896.914744  	87.587529 
897.879169  	87.565863 
898.843593  	87.613326 
899.808017  	87.694983 
900.772442  	87.824635 
901.736866  	87.922181 
902.701291  	88.094165 
903.665715  	88.345661 
904.630140  	88.500862 
905.594564  	88.655697 
906.558989  	88.917899 
907.523413  	89.186464 
908.487838  	89.359292 
909.452262  	89.532138 
910.416686  	89.719582 
911.381111  	89.901961 
912.345535  	90.056588 
913.309960  	90.158330 
914.274384  	90.251694 
915.238809  	90.310300 
916.203233  	90.339662 
917.167658  	90.415081 
918.132082  	90.446013 
919.096507  	90.518732 
920.060931  	90.566782 
921.025355  	90.544610 
921.989780  	90.533104 
922.954204  	90.551993 
923.918629  	90.522171 
924.883053  	90.514774 
925.847478  	90.525580 
926.811902  	90.469277 
927.776327  	90.429180 
928.740751  	90.422385 
929.705176  	90.401438 
930.669600  	90.325308 
931.634024  	90.248748 
932.598449  	90.205460 
933.562873  	90.195863 
934.527298  	90.125408 
935.491722  	90.029998 
936.456147  	90.024877 
937.420571  	89.976307 
938.384996  	89.842301 
939.349420  	89.741992 
940.313845  	89.702776 
941.278269  	89.646335 
942.242694  	89.558785 
943.207118  	89.443443 
944.171542  	89.375158 
945.135967  	89.317194 
946.100391  	89.179714 
947.064816  	88.998296 
948.029240  	88.879644 
948.993665  	88.784451 
949.958089  	88.634901 
950.922514  	88.451220 
951.886938  	88.364981 
952.851363  	88.217257 
953.815787  	87.984918 
954.780211  	87.783318 
955.744636  	87.610312 
956.709060  	87.366363 
957.673485  	87.095864 
958.637909  	86.791991 
959.602334  	86.476744 
960.566758  	86.153686 
961.531183  	85.806394 
962.495607  	85.399070 
963.460032  	84.979965 
964.424456  	84.529354 
965.388880  	83.986540 
966.353305  	83.474758 
967.317729  	83.025623 
968.282154  	82.569025 
969.246578  	82.175197 
970.211003  	81.881571 
971.175427  	81.680367 
972.139852  	81.655264 
973.104276  	81.836458 
974.068701  	82.180588 
975.033125  	82.622165 
975.997549  	83.098466 
976.961974  	83.580625 
977.926398  	84.076605 
978.890823  	84.538427 
979.855247  	84.908528 
980.819672  	85.236594 
981.784096  	85.558735 
982.748521  	85.822539 
983.712945  	85.965200 
984.677370  	86.008648 
985.641794  	86.031520 
986.606218  	86.014539 
987.570643  	85.983631 
988.535067  	85.979745 
989.499492  	86.026701 
990.463916  	86.107701 
991.428341  	86.215928 
992.392765  	86.269544 
993.357190  	86.242376 
994.321614  	86.240988 
995.286039  	86.243842 
996.250463  	86.209513 
997.214888  	86.108303 
998.179312  	85.990860 
999.143736  	85.833838 
1000.108161  	85.643176 
1001.072585  	85.440948 
1002.037010  	85.231123 
1003.001434  	84.959174 
1003.965859  	84.616317 
1004.930283  	84.250514 
1005.894708  	83.764195 
1006.859132  	83.126748 
1007.823557  	82.373044 
1008.787981  	81.517168 
1009.752405  	80.493511 
1010.716830  	79.164284 
1011.681254  	77.473627 
1012.645679  	75.375704 
1013.610103  	72.765115 
1014.574528  	69.853247 
1015.538952  	67.227167 
1016.503377  	65.389411 
1017.467801  	64.498651 
1018.432226  	64.653789 
1019.396650  	65.678350 
1020.361074  	67.126708 
1021.325499  	68.679969 
1022.289923  	70.066325 
1023.254348  	71.345933 
1024.218772  	72.843519 
1025.183197  	74.760996 
1026.147621  	76.873515 
1027.112046  	78.781074 
1028.076470  	80.135724 
1029.040895  	80.920794 
1030.005319  	81.317118 
1030.969743  	81.495960 
1031.934168  	81.577093 
1032.898592  	81.577127 
1033.863017  	81.431781 
1034.827441  	81.192955 
1035.791866  	81.006952 
1036.756290  	80.834882 
1037.720715  	80.652948 
1038.685139  	80.464766 
1039.649564  	80.311862 
1040.613988  	80.128962 
1041.578412  	79.964848 
1042.542837  	79.874146 
1043.507261  	79.844378 
1044.471686  	79.829946 
1045.436110  	79.848243 
1046.400535  	79.993924 
1047.364959  	80.145845 
1048.329384  	80.233910 
1049.293808  	80.406484 
1050.258233  	80.674845 
1051.222657  	80.869127 
1052.187081  	80.970601 
1053.151506  	81.070778 
1054.115930  	81.234843 
1055.080355  	81.301490 
1056.044779  	81.232684 
1057.009204  	81.149631 
1057.973628  	81.090294 
1058.938053  	80.936846 
1059.902477  	80.610590 
1060.866902  	80.266807 
1061.831326  	79.975973 
1062.795751  	79.564378 
1063.760175  	79.023640 
1064.724599  	78.464665 
1065.689024  	77.905060 
1066.653448  	77.265367 
1067.617873  	76.563092 
1068.582297  	75.797454 
1069.546722  	74.967403 
1070.511146  	74.062509 
1071.475571  	73.111694 
1072.439995  	72.101981 
1073.404420  	71.019544 
1074.368844  	69.811731 
1075.333268  	68.419807 
1076.297693  	66.968853 
1077.262117  	65.512498 
1078.226542  	64.003951 
1079.190966  	62.472313 
1080.155391  	60.975139 
1081.119815  	59.598511 
1082.084240  	58.325523 
1083.048664  	57.212192 
1084.013089  	56.278403 
1084.977513  	55.459192 
1085.941937  	54.677329 
1086.906362  	53.954528 
1087.870786  	53.355229 
1088.835211  	52.859854 
1089.799635  	52.333005 
1090.764060  	51.795943 
1091.728484  	51.375114 
1092.692909  	51.023186 
1093.657333  	50.699594 
1094.621758  	50.461634 
1095.586182  	50.385954 
1096.550606  	50.395118 
1097.515031  	50.474190 
1098.479455  	50.698873 
1099.443880  	51.033675 
1100.408304  	51.396969 
1101.372729  	51.837090 
1102.337153  	52.424924 
1103.301578  	53.080209 
1104.266002  	53.723932 
1105.230427  	54.409038 
1106.194851  	55.175134 
1107.159275  	55.959303 
1108.123700  	56.678673 
1109.088124  	57.350600 
1110.052549  	57.956836 
1111.016973  	58.431816 
1111.981398  	58.754770 
1112.945822  	58.997246 
1113.910247  	59.203349 
1114.874671  	59.323291 
1115.839096  	59.256016 
1116.803520  	59.092719 
1117.767945  	58.916596 
1118.732369  	58.779628 
1119.696793  	58.717807 
1120.661218  	58.711940 
1121.625642  	58.804323 
1122.590067  	58.999892 
1123.554491  	59.237901 
1124.518916  	59.575763 
1125.483340  	60.035754 
1126.447765  	60.556065 
1127.412189  	61.115991 
1128.376614  	61.787427 
1129.341038  	62.613755 
1130.305462  	63.565193 
1131.269887  	64.597636 
1132.234311  	65.739749 
1133.198736  	67.033678 
1134.163160  	68.407115 
1135.127585  	69.817668 
1136.092009  	71.275178 
1137.056434  	72.739986 
1138.020858  	74.152713 
1138.985283  	75.457709 
1139.949707  	76.682339 
1140.914131  	77.900615 
1141.878556  	78.994060 
1142.842980  	79.931024 
1143.807405  	80.881917 
1144.771829  	81.812570 
1145.736254  	82.648117 
1146.700678  	83.376497 
1147.665103  	84.032670 
1148.629527  	84.649590 
1149.593952  	85.206199 
1150.558376  	85.719805 
1151.522800  	86.169763 
1152.487225  	86.586418 
1153.451649  	86.984063 
1154.416074  	87.336975 
1155.380498  	87.589064 
1156.344923  	87.838226 
1157.309347  	88.075791 
1158.273772  	88.281181 
1159.238196  	88.392614 
1160.202621  	88.496783 
1161.167045  	88.602890 
1162.131469  	88.653479 
1163.095894  	88.643690 
1164.060318  	88.624255 
1165.024743  	88.555579 
1165.989167  	88.411037 
1166.953592  	88.182393 
1167.918016  	87.904936 
1168.882441  	87.508797 
1169.846865  	87.069073 
1170.811290  	86.674509 
1171.775714  	86.339963 
1172.740138  	86.130225 
1173.704563  	85.968731 
1174.668987  	85.857524 
1175.633412  	85.940905 
1176.597836  	86.101411 
1177.562261  	86.249351 
1178.526685  	86.421182 
1179.491110  	86.658663 
1180.455534  	86.916328 
1181.419959  	87.203293 
1182.384383  	87.461905 
1183.348808  	87.632334 
1184.313232  	87.786409 
1185.277656  	87.896067 
1186.242081  	87.946735 
1187.206505  	87.976332 
1188.170930  	87.958307 
1189.135354  	87.861272 
1190.099779  	87.771331 
1191.064203  	87.687944 
