##TITLE=No Description
##DATA TYPE=INFRARED SPECTRUM
##XUNITS=1/CM
##YUNITS=%T
400.236149  	112.250726 
401.200574  	103.161648 
402.164998  	86.767470 
403.129423  	86.294808 
404.093847  	92.257488 
405.058272  	89.525829 
406.022696  	99.758030 
406.987120  	110.987335 
407.951545  	100.119814 
408.915969  	88.528114 
409.880394  	80.636804 
410.844818  	82.146697 
411.809243  	89.389396 
412.773667  	88.528232 
413.738092  	85.799266 
414.702516  	77.984240 
415.666941  	75.443534 
416.631365  	82.135094 
417.595789  	82.304734 
418.560214  	87.464071 
419.524638  	88.068392 
420.489063  	80.651669 
421.453487  	75.914413 
422.417912  	75.325741 
423.382336  	77.928036 
424.346761  	76.558251 
425.311185  	71.679650 
426.275610  	72.053598 
427.240034  	74.979076 
428.204458  	76.389436 
429.168883  	76.174785 
430.133307  	74.480084 
431.097732  	72.297618 
432.062156  	71.257098 
433.026581  	71.890420 
433.991005  	73.442904 
434.955430  	73.830791 
435.919854  	73.853721 
436.884279  	74.439915 
437.848703  	75.359897 
438.813127  	76.170960 
439.777552  	75.413830 
440.741976  	75.086516 
441.706401  	76.757156 
442.670825  	78.635108 
443.635250  	80.935597 
444.599674  	80.916714 
445.564099  	79.637250 
446.528523  	78.883992 
447.492948  	79.755616 
448.457372  	81.837468 
449.421796  	80.961879 
450.386221  	78.288265 
451.350645  	79.180132 
452.315070  	79.945274 
453.279494  	79.322365 
454.243919  	79.695454 
455.208343  	79.661051 
456.172768  	79.278408 
457.137192  	78.799570 
458.101617  	79.892656 
459.066041  	80.927654 
460.030466  	80.419669 
460.994890  	79.063868 
461.959314  	78.897402 
462.923739  	79.517677 
463.888163  	79.674810 
464.852588  	79.893351 
465.817012  	79.715870 
466.781437  	79.186108 
467.745861  	78.458895 
468.710286  	78.409743 
469.674710  	77.938961 
470.639135  	77.812180 
471.603559  	78.084979 
472.567983  	78.922068 
473.532408  	79.553684 
474.496832  	78.904071 
475.461257  	78.613329 
476.425681  	78.307434 
477.390106  	79.225418 
478.354530  	79.586736 
479.318955  	78.263563 
480.283379  	77.746268 
481.247804  	78.153546 
482.212228  	78.316442 
483.176652  	78.660246 
484.141077  	78.051238 
485.105501  	77.126945 
486.069926  	76.478772 
487.034350  	77.078427 
487.998775  	77.744459 
488.963199  	77.712662 
489.927624  	77.803016 
490.892048  	77.179311 
491.856473  	76.216567 
492.820897  	76.532157 
493.785321  	76.623190 
494.749746  	75.715463 
495.714170  	75.484453 
496.678595  	75.315060 
497.643019  	74.976015 
498.607444  	74.615755 
499.571868  	74.183716 
500.536293  	73.976284 
501.500717  	73.145237 
502.465142  	72.544587 
503.429566  	72.741821 
504.393990  	72.649111 
505.358415  	72.769926 
506.322839  	72.481628 
507.287264  	73.088568 
508.251688  	74.778690 
509.216113  	76.328367 
510.180537  	76.713439 
511.144962  	77.338628 
512.109386  	78.576797 
513.073811  	79.235024 
514.038235  	79.152458 
515.002660  	78.966539 
515.967084  	78.765218 
516.931508  	78.497754 
517.895933  	78.710532 
518.860357  	78.718590 
519.824782  	78.253297 
520.789206  	78.570670 
521.753631  	78.991511 
522.718055  	79.211518 
523.682480  	79.613158 
524.646904  	79.636544 
525.611329  	78.710885 
526.575753  	78.913989 
527.540177  	79.850059 
528.504602  	80.241964 
529.469026  	80.176052 
530.433451  	80.095576 
531.397875  	80.213835 
532.362300  	80.448842 
533.326724  	80.859633 
534.291149  	80.684766 
535.255573  	80.787453 
536.219998  	81.256620 
537.184422  	81.566202 
538.148846  	81.020573 
539.113271  	81.071763 
540.077695  	81.045553 
541.042120  	81.293085 
542.006544  	81.473466 
542.970969  	81.572438 
543.935393  	81.667814 
544.899818  	81.541003 
545.864242  	81.642480 
546.828667  	81.685746 
547.793091  	81.054060 
548.757515  	81.099692 
549.721940  	81.587233 
550.686364  	81.561583 
551.650789  	81.778737 
552.615213  	81.669798 
553.579638  	81.960311 
554.544062  	82.161566 
555.508487  	81.997976 
556.472911  	81.905525 
557.437336  	81.586048 
558.401760  	81.468892 
559.366184  	81.912564 
560.330609  	81.720527 
561.295033  	81.594711 
562.259458  	81.842103 
563.223882  	81.746406 
564.188307  	81.557015 
565.152731  	81.708952 
566.117156  	81.599007 
567.081580  	81.169464 
568.046005  	81.125977 
569.010429  	81.007536 
569.974853  	81.001363 
570.939278  	81.030641 
571.903702  	81.255690 
572.868127  	81.407309 
573.832551  	81.146794 
574.796976  	80.947443 
575.761400  	80.460284 
576.725825  	80.728705 
577.690249  	81.111122 
578.654674  	81.253781 
579.619098  	81.221558 
580.583523  	80.874175 
581.547947  	81.107067 
582.512371  	81.442662 
583.476796  	81.142288 
584.441220  	80.847332 
585.405645  	81.019068 
586.370069  	81.291125 
587.334494  	81.259164 
588.298918  	81.224068 
589.263343  	80.918682 
590.227767  	80.940838 
591.192192  	80.749418 
592.156616  	80.465942 
593.121040  	80.875415 
594.085465  	81.101596 
595.049889  	81.102302 
596.014314  	80.993105 
596.978738  	80.680789 
597.943163  	80.707791 
598.907587  	80.823078 
599.872012  	80.499007 
600.836436  	80.696439 
601.800861  	80.886502 
602.765285  	80.626989 
603.729709  	80.400523 
604.694134  	80.445465 
605.658558  	80.544932 
606.622983  	80.500477 
607.587407  	80.486812 
608.551832  	80.498680 
609.516256  	80.485851 
610.480681  	80.300756 
611.445105  	79.966055 
612.409530  	80.041976 
613.373954  	80.366902 
614.338378  	80.268937 
615.302803  	79.811384 
616.267227  	79.564876 
617.231652  	79.835868 
618.196076  	80.015872 
619.160501  	79.835096 
620.124925  	79.563244 
621.089350  	79.607773 
622.053774  	79.686865 
623.018199  	79.718567 
623.982623  	79.385873 
624.947047  	79.248557 
625.911472  	79.091297 
626.875896  	79.186372 
627.840321  	78.993091 
628.804745  	78.798428 
629.769170  	78.230350 
630.733594  	77.574738 
631.698019  	77.528172 
632.662443  	77.942865 
633.626868  	78.245949 
634.591292  	78.655259 
635.555717  	78.698315 
636.520141  	78.987319 
637.484565  	79.090057 
638.448990  	79.070305 
639.413414  	79.067220 
640.377839  	79.118701 
641.342263  	78.991380 
642.306688  	78.801356 
643.271112  	78.805976 
644.235537  	78.795828 
645.199961  	78.602459 
646.164386  	78.558928 
647.128810  	78.678681 
648.093234  	78.612937 
649.057659  	78.419042 
650.022083  	78.304038 
650.986508  	78.226312 
651.950932  	78.206436 
652.915357  	78.098902 
653.879781  	77.983617 
654.844206  	77.920830 
655.808630  	77.829318 
656.773055  	77.648243 
657.737479  	77.727467 
658.701903  	77.658486 
659.666328  	77.447940 
660.630752  	77.371643 
661.595177  	77.216791 
662.559601  	77.091694 
663.524026  	76.882146 
664.488450  	76.845240 
665.452875  	76.878160 
666.417299  	76.777093 
667.381724  	77.006757 
668.346148  	76.972091 
669.310572  	75.871372 
670.274997  	75.571306 
671.239421  	75.554867 
672.203846  	75.485196 
673.168270  	75.352164 
674.132695  	74.948273 
675.097119  	74.581050 
676.061544  	74.201154 
677.025968  	73.957024 
677.990393  	73.789882 
678.954817  	73.526420 
679.919241  	73.316790 
680.883666  	73.252962 
681.848090  	73.305365 
682.812515  	73.287723 
683.776939  	73.034975 
684.741364  	72.843257 
685.705788  	72.531276 
686.670213  	72.412879 
687.634637  	72.164354 
688.599062  	71.753300 
689.563486  	71.475194 
690.527910  	71.166111 
691.492335  	70.696581 
692.456759  	70.163531 
693.421184  	69.626291 
694.385608  	69.215060 
695.350033  	68.747061 
696.314457  	68.058259 
697.278882  	67.095827 
698.243306  	66.223031 
699.207731  	65.350395 
700.172155  	64.524726 
701.136580  	63.588109 
702.101004  	62.813932 
703.065428  	62.232352 
704.029853  	61.571603 
704.994277  	60.885508 
705.958702  	60.295654 
706.923126  	59.491308 
707.887551  	58.672036 
708.851975  	57.905691 
709.816400  	56.961546 
710.780824  	55.973591 
711.745249  	55.018165 
712.709673  	53.967795 
713.674097  	52.787054 
714.638522  	51.504277 
715.602946  	50.271541 
716.567371  	48.957623 
717.531795  	47.668229 
718.496220  	46.317038 
719.460644  	45.114507 
720.425069  	43.953528 
721.389493  	42.910960 
722.353918  	42.066604 
723.318342  	41.621132 
724.282766  	41.744771 
725.247191  	42.746161 
726.211615  	44.431418 
727.176040  	46.734665 
728.140464  	49.180381 
729.104889  	51.685432 
730.069313  	54.248674 
731.033738  	56.876317 
731.998162  	59.575788 
732.962587  	62.415006 
733.927011  	65.266711 
734.891435  	68.007515 
735.855860  	70.753047 
736.820284  	73.559813 
737.784709  	76.123585 
738.749133  	78.340501 
739.713558  	80.194327 
740.677982  	81.714899 
741.642407  	82.820259 
742.606831  	83.665063 
743.571256  	84.215419 
744.535680  	84.474662 
745.500104  	84.687743 
746.464529  	84.773698 
747.428953  	84.727832 
748.393378  	84.726493 
749.357802  	84.576518 
750.322227  	84.419628 
751.286651  	84.257557 
752.251076  	84.210495 
753.215500  	84.084449 
754.179925  	83.829212 
755.144349  	83.639039 
756.108774  	83.544978 
757.073198  	83.377118 
758.037622  	83.225321 
759.002047  	83.065407 
759.966471  	82.932655 
760.930896  	82.774485 
761.895320  	82.563584 
762.859745  	82.442769 
763.824169  	82.410831 
764.788594  	82.172439 
765.753018  	81.884550 
766.717443  	81.629475 
767.681867  	81.472344 
768.646291  	81.258262 
769.610716  	81.035388 
770.575140  	80.824956 
771.539565  	80.717779 
772.503989  	80.450326 
773.468414  	80.199012 
774.432838  	80.116253 
775.397263  	80.091229 
776.361687  	79.850855 
777.326112  	79.659941 
778.290536  	79.562805 
779.254960  	79.421250 
780.219385  	79.042970 
781.183809  	79.013546 
782.148234  	78.536410 
783.112658  	78.095444 
784.077083  	77.837905 
785.041507  	77.570156 
786.005932  	77.270483 
786.970356  	76.862799 
787.934781  	76.334557 
788.899205  	75.977993 
789.863629  	75.724260 
790.828054  	75.365591 
791.792478  	75.006327 
792.756903  	75.010711 
793.721327  	75.393275 
794.685752  	75.990169 
795.650176  	76.762657 
796.614601  	77.537553 
797.579025  	78.130331 
798.543450  	78.327924 
799.507874  	78.344018 
800.472298  	78.370843 
801.436723  	78.363645 
802.401147  	78.252271 
803.365572  	78.089286 
804.329996  	78.070746 
805.294421  	78.052586 
806.258845  	77.895842 
807.223270  	77.778340 
808.187694  	77.791656 
809.152119  	77.780625 
810.116543  	77.650661 
811.080967  	77.559068 
812.045392  	77.584082 
813.009816  	77.517948 
813.974241  	77.397816 
814.938665  	77.370563 
815.903090  	77.302830 
816.867514  	77.221297 
817.831939  	77.208866 
818.796363  	77.144136 
819.760788  	77.041845 
820.725212  	76.904677 
821.689637  	76.716112 
822.654061  	76.557059 
823.618485  	76.455888 
824.582910  	76.229902 
825.547334  	75.874184 
826.511759  	75.655021 
827.476183  	75.534795 
828.440608  	75.356238 
829.405032  	75.044930 
830.369457  	74.736458 
831.333881  	74.510980 
832.298306  	74.268003 
833.262730  	73.979700 
834.227154  	73.704394 
835.191579  	73.414530 
836.156003  	73.011443 
837.120428  	72.622370 
838.084852  	72.182663 
839.049277  	71.880084 
840.013701  	71.592149 
840.978126  	71.187278 
841.942550  	70.823777 
842.906975  	70.497668 
843.871399  	70.098015 
844.835823  	69.615226 
845.800248  	69.357455 
846.764672  	69.436931 
847.729097  	69.707808 
848.693521  	70.056365 
849.657946  	70.575522 
850.622370  	71.191731 
851.586795  	71.720433 
852.551219  	71.996550 
853.515644  	72.306713 
854.480068  	72.636947 
855.444492  	72.796481 
856.408917  	72.986175 
857.373341  	73.238291 
858.337766  	73.369738 
859.302190  	73.434972 
860.266615  	73.428751 
861.231039  	73.394413 
862.195464  	73.180618 
863.159888  	72.816240 
864.124313  	72.429828 
865.088737  	71.917243 
866.053161  	71.129298 
867.017586  	70.045244 
867.982010  	68.784646 
868.946435  	67.168549 
869.910859  	65.164725 
870.875284  	63.160795 
871.839708  	62.010033 
872.804133  	62.574498 
873.768557  	64.668581 
874.732982  	66.928698 
875.697406  	68.709502 
876.661831  	69.983906 
877.626255  	71.028540 
878.590679  	71.983125 
879.555104  	72.799642 
880.519528  	73.415098 
881.483953  	74.000186 
882.448377  	74.601233 
883.412802  	75.119153 
884.377226  	75.560848 
885.341651  	75.852094 
886.306075  	76.004459 
887.270500  	76.139634 
888.234924  	76.281109 
889.199348  	76.309000 
890.163773  	76.253069 
891.128197  	76.271515 
892.092622  	76.244961 
893.057046  	76.093411 
894.021471  	75.936245 
894.985895  	75.880451 
895.950320  	75.756057 
896.914744  	75.653867 
897.879169  	75.668315 
898.843593  	75.733185 
899.808017  	75.762513 
900.772442  	75.775677 
901.736866  	75.821463 
902.701291  	75.977851 
903.665715  	76.181665 
904.630140  	76.321044 
905.594564  	76.369751 
906.558989  	76.495257 
907.523413  	76.689780 
908.487838  	76.787627 
909.452262  	76.874027 
910.416686  	77.008580 
911.381111  	77.091077 
912.345535  	77.051389 
913.309960  	77.031232 
914.274384  	77.062317 
915.238809  	77.049262 
916.203233  	77.020643 
917.167658  	76.940039 
918.132082  	76.845329 
919.096507  	76.810608 
920.060931  	76.741111 
921.025355  	76.629786 
921.989780  	76.577867 
922.954204  	76.533850 
923.918629  	76.389452 
924.883053  	76.245572 
925.847478  	76.213609 
926.811902  	76.128670 
927.776327  	75.954670 
928.740751  	75.797736 
929.705176  	75.745754 
930.669600  	75.658416 
931.634024  	75.519848 
932.598449  	75.411161 
933.562873  	75.287001 
934.527298  	75.163858 
935.491722  	75.010950 
936.456147  	74.845108 
937.420571  	74.721077 
938.384996  	74.598784 
939.349420  	74.442725 
940.313845  	74.263295 
941.278269  	74.123350 
942.242694  	73.954492 
943.207118  	73.764909 
944.171542  	73.628786 
945.135967  	73.519466 
946.100391  	73.330328 
947.064816  	73.069561 
948.029240  	72.864586 
948.993665  	72.724050 
949.958089  	72.570091 
950.922514  	72.344362 
951.886938  	72.166653 
952.851363  	71.958032 
953.815787  	71.685736 
954.780211  	71.446399 
955.744636  	71.287062 
956.709060  	71.103284 
957.673485  	70.812994 
958.637909  	70.509105 
959.602334  	70.251347 
960.566758  	69.998359 
961.531183  	69.721311 
962.495607  	69.412101 
963.460032  	69.166792 
964.424456  	68.962856 
965.388880  	68.687760 
966.353305  	68.443283 
967.317729  	68.320774 
968.282154  	68.196406 
969.246578  	68.139636 
970.211003  	68.212063 
971.175427  	68.387662 
972.139852  	68.673608 
973.104276  	69.030816 
974.068701  	69.500427 
975.033125  	69.976199 
975.997549  	70.371315 
976.961974  	70.704758 
977.926398  	71.015272 
978.890823  	71.280897 
979.855247  	71.440562 
980.819672  	71.515220 
981.784096  	71.558609 
982.748521  	71.590754 
983.712945  	71.509024 
984.677370  	71.288527 
985.641794  	71.113547 
986.606218  	70.941333 
987.570643  	70.741387 
988.535067  	70.606523 
989.499492  	70.535471 
990.463916  	70.454953 
991.428341  	70.326143 
992.392765  	70.134053 
993.357190  	69.929194 
994.321614  	69.757867 
995.286039  	69.592166 
996.250463  	69.408567 
997.214888  	69.166615 
998.179312  	68.907975 
999.143736  	68.576664 
1000.108161  	68.244077 
1001.072585  	67.970325 
1002.037010  	67.715426 
1003.001434  	67.389061 
1003.965859  	66.995223 
1004.930283  	66.611467 
1005.894708  	66.193732 
1006.859132  	65.696691 
1007.823557  	65.112483 
1008.787981  	64.515481 
1009.752405  	63.881245 
1010.716830  	63.100549 
1011.681254  	62.159557 
1012.645679  	61.045928 
1013.610103  	59.794265 
1014.574528  	58.501029 
1015.538952  	57.423448 
1016.503377  	56.890371 
1017.467801  	57.064801 
1018.432226  	57.882525 
1019.396650  	59.183650 
1020.361074  	60.764857 
1021.325499  	62.427157 
1022.289923  	64.099190 
1023.254348  	65.974123 
1024.218772  	68.100800 
1025.183197  	70.330904 
1026.147621  	72.293601 
1027.112046  	73.666080 
1028.076470  	74.344273 
1029.040895  	74.374553 
1030.005319  	73.944333 
1030.969743  	73.330945 
1031.934168  	72.692200 
1032.898592  	72.023064 
1033.863017  	71.346287 
1034.827441  	70.722066 
1035.791866  	70.144432 
1036.756290  	69.607972 
1037.720715  	69.119018 
1038.685139  	68.685893 
1039.649564  	68.358499 
1040.613988  	68.048053 
1041.578412  	67.712043 
1042.542837  	67.447082 
1043.507261  	67.266122 
1044.471686  	67.102698 
1045.436110  	66.943805 
1046.400535  	66.822064 
1047.364959  	66.754623 
1048.329384  	66.696906 
1049.293808  	66.615732 
1050.258233  	66.573944 
1051.222657  	66.542244 
1052.187081  	66.487193 
1053.151506  	66.381984 
1054.115930  	66.282996 
1055.080355  	66.163414 
1056.044779  	65.970187 
1057.009204  	65.749292 
1057.973628  	65.537859 
1058.938053  	65.316935 
1059.902477  	65.038121 
1060.866902  	64.687728 
1061.831326  	64.392776 
1062.795751  	64.070338 
1063.760175  	63.715583 
1064.724599  	63.374940 
1065.689024  	62.990729 
1066.653448  	62.555309 
1067.617873  	62.110703 
1068.582297  	61.643940 
1069.546722  	61.187584 
1070.511146  	60.720208 
1071.475571  	60.172373 
1072.439995  	59.569763 
1073.404420  	58.954808 
1074.368844  	58.268802 
1075.333268  	57.534858 
1076.297693  	56.802341 
1077.262117  	56.074718 
1078.226542  	55.349126 
1079.190966  	54.616187 
1080.155391  	53.855799 
1081.119815  	53.151183 
1082.084240  	52.549794 
1083.048664  	52.038425 
1084.013089  	51.593252 
1084.977513  	51.182035 
1085.941937  	50.809097 
1086.906362  	50.455418 
1087.870786  	50.168963 
1088.835211  	49.951943 
1089.799635  	49.735697 
1090.764060  	49.554269 
1091.728484  	49.428297 
1092.692909  	49.319244 
1093.657333  	49.207873 
1094.621758  	49.172905 
1095.586182  	49.265723 
1096.550606  	49.384133 
1097.515031  	49.562921 
1098.479455  	49.833916 
1099.443880  	50.195270 
1100.408304  	50.657435 
1101.372729  	51.174891 
1102.337153  	51.737326 
1103.301578  	52.349285 
1104.266002  	53.007901 
1105.230427  	53.679949 
1106.194851  	54.348528 
1107.159275  	55.019221 
1108.123700  	55.648046 
1109.088124  	56.220986 
1110.052549  	56.754737 
1111.016973  	57.168393 
1111.981398  	57.465704 
1112.945822  	57.710847 
1113.910247  	57.866196 
1114.874671  	57.906632 
1115.839096  	57.890257 
1116.803520  	57.879915 
1117.767945  	57.920806 
1118.732369  	58.090042 
1119.696793  	58.458781 
1120.661218  	58.908318 
1121.625642  	59.387710 
1122.590067  	60.022967 
1123.554491  	60.764951 
1124.518916  	61.550988 
1125.483340  	62.477044 
1126.447765  	63.500382 
1127.412189  	64.587651 
1128.376614  	65.758614 
1129.341038  	66.955453 
1130.305462  	68.173719 
1131.269887  	69.476315 
1132.234311  	70.742514 
1133.198736  	71.910754 
1134.163160  	73.077017 
1135.127585  	74.205238 
1136.092009  	75.256542 
1137.056434  	76.246283 
1138.020858  	77.214966 
1138.985283  	78.116139 
1139.949707  	78.894535 
1140.914131  	79.587311 
1141.878556  	80.259618 
1142.842980  	80.862912 
1143.807405  	81.427001 
1144.771829  	81.981203 
1145.736254  	82.485598 
1146.700678  	82.904086 
1147.665103  	83.238534 
1148.629527  	83.568173 
1149.593952  	83.920667 
1150.558376  	84.226421 
1151.522800  	84.432446 
1152.487225  	84.610455 
1153.451649  	84.781861 
1154.416074  	84.934388 
1155.380498  	85.016507 
1156.344923  	85.076716 
1157.309347  	85.156038 
1158.273772  	85.176671 
1159.238196  	85.090586 
1160.202621  	85.072882 
1161.167045  	85.027201 
1162.131469  	84.889529 
1163.095894  	84.738750 
1164.060318  	84.569918 
1165.024743  	84.310705 
1165.989167  	83.975104 
1166.953592  	83.576749 
1167.918016  	83.121397 
1168.882441  	82.598134 
1169.846865  	81.992446 
1170.811290  	81.414577 
1171.775714  	80.951411 
1172.740138  	80.593802 
1173.704563  	80.224851 
1174.668987  	79.901745 
1175.633412  	79.796779 
1176.597836  	79.738554 
1177.562261  	79.633977 
1178.526685  	79.543060 
1179.491110  	79.492087 
1180.455534  	79.412328 
1181.419959  	79.335011 
1182.384383  	79.190462 
1183.348808  	78.968097 
1184.313232  	78.745823 
1185.277656  	78.441028 
1186.242081  	78.044559 
1187.206505  	77.632772 
1188.170930  	77.213440 
1189.135354  	76.734335 
1190.099779  	76.225699 
1191.064203  	75.719235 
