##TITLE=No Description
##DATA TYPE=INFRARED SPECTRUM
##XUNITS=1/CM
##YUNITS=%T
400.236149  	112.485223 
401.200574  	93.920827 
402.164998  	74.402451 
403.129423  	61.321716 
404.093847  	73.517058 
405.058272  	78.924696 
406.022696  	82.211984 
406.987120  	78.819177 
407.951545  	70.371968 
408.915969  	67.061092 
409.880394  	79.151949 
410.844818  	96.784095 
411.809243  	96.666721 
412.773667  	86.722897 
413.738092  	83.811280 
414.702516  	77.724104 
415.666941  	75.318728 
416.631365  	82.191099 
417.595789  	85.858093 
418.560214  	82.488145 
419.524638  	76.062047 
420.489063  	80.123962 
421.453487  	81.638216 
422.417912  	81.860082 
423.382336  	81.907751 
424.346761  	82.772334 
425.311185  	81.929857 
426.275610  	83.170521 
427.240034  	83.498869 
428.204458  	81.288352 
429.168883  	80.733001 
430.133307  	83.167762 
431.097732  	82.354179 
432.062156  	80.332797 
433.026581  	78.098528 
433.991005  	76.851231 
434.955430  	77.377695 
435.919854  	78.222616 
436.884279  	78.240221 
437.848703  	78.698750 
438.813127  	80.017939 
439.777552  	81.473810 
440.741976  	82.050082 
441.706401  	81.104225 
442.670825  	81.470967 
443.635250  	80.680004 
444.599674  	82.025972 
445.564099  	84.362901 
446.528523  	83.357791 
447.492948  	84.107310 
448.457372  	85.802434 
449.421796  	84.568012 
450.386221  	83.884196 
451.350645  	84.323016 
452.315070  	83.022962 
453.279494  	83.249145 
454.243919  	84.813724 
455.208343  	85.054840 
456.172768  	84.142555 
457.137192  	83.878098 
458.101617  	83.030975 
459.066041  	83.363741 
460.030466  	84.120714 
460.994890  	84.566884 
461.959314  	84.200648 
462.923739  	83.411742 
463.888163  	83.080104 
464.852588  	83.414837 
465.817012  	84.123048 
466.781437  	84.154214 
467.745861  	83.304034 
468.710286  	82.923010 
469.674710  	82.197806 
470.639135  	81.546031 
471.603559  	81.666100 
472.567983  	81.958990 
473.532408  	82.563689 
474.496832  	82.539511 
475.461257  	82.817992 
476.425681  	82.651431 
477.390106  	83.430580 
478.354530  	84.283620 
479.318955  	83.531949 
480.283379  	83.193499 
481.247804  	83.488160 
482.212228  	82.805630 
483.176652  	82.983705 
484.141077  	82.975475 
485.105501  	82.545689 
486.069926  	82.244641 
487.034350  	83.181827 
487.998775  	83.981315 
488.963199  	83.941804 
489.927624  	83.795747 
490.892048  	83.127756 
491.856473  	82.523365 
492.820897  	83.066855 
493.785321  	82.970585 
494.749746  	82.225955 
495.714170  	82.188825 
496.678595  	81.774779 
497.643019  	81.425474 
498.607444  	81.202024 
499.571868  	80.291736 
500.536293  	80.104454 
501.500717  	79.335909 
502.465142  	78.397779 
503.429566  	79.211453 
504.393990  	79.683897 
505.358415  	79.635629 
506.322839  	78.739431 
507.287264  	78.759512 
508.251688  	80.587165 
509.216113  	81.765880 
510.180537  	82.159259 
511.144962  	82.887214 
512.109386  	83.823629 
513.073811  	84.326164 
514.038235  	84.292821 
515.002660  	83.724077 
515.967084  	83.157035 
516.931508  	82.718789 
517.895933  	83.043917 
518.860357  	83.205174 
519.824782  	83.351654 
520.789206  	84.063094 
521.753631  	84.524857 
522.718055  	84.257723 
523.682480  	83.868863 
524.646904  	83.839607 
525.611329  	83.521366 
526.575753  	83.660349 
527.540177  	84.342086 
528.504602  	84.823767 
529.469026  	84.782369 
530.433451  	84.347238 
531.397875  	84.219763 
532.362300  	84.576859 
533.326724  	85.251303 
534.291149  	85.141425 
535.255573  	85.170855 
536.219998  	85.532446 
537.184422  	86.056513 
538.148846  	85.721186 
539.113271  	85.797672 
540.077695  	85.757996 
541.042120  	85.984503 
542.006544  	86.359890 
542.970969  	86.325187 
543.935393  	86.112778 
544.899818  	86.118436 
545.864242  	86.327268 
546.828667  	86.459088 
547.793091  	85.944047 
548.757515  	85.834621 
549.721940  	86.197899 
550.686364  	86.385249 
551.650789  	86.718628 
552.615213  	86.403755 
553.579638  	86.389285 
554.544062  	86.591018 
555.508487  	86.583891 
556.472911  	86.500668 
557.437336  	86.173906 
558.401760  	86.161915 
559.366184  	86.413279 
560.330609  	86.272016 
561.295033  	86.289241 
562.259458  	86.550386 
563.223882  	86.365933 
564.188307  	86.441360 
565.152731  	86.821521 
566.117156  	86.785151 
567.081580  	86.402944 
568.046005  	86.226633 
569.010429  	86.132615 
569.974853  	86.243129 
570.939278  	86.223946 
571.903702  	86.125629 
572.868127  	86.109064 
573.832551  	86.057542 
574.796976  	86.214536 
575.761400  	85.917701 
576.725825  	86.033267 
577.690249  	86.171577 
578.654674  	86.287813 
579.619098  	86.445174 
580.583523  	86.103774 
581.547947  	86.177187 
582.512371  	86.435705 
583.476796  	86.440846 
584.441220  	86.307213 
585.405645  	86.371944 
586.370069  	86.806611 
587.334494  	86.877748 
588.298918  	86.722374 
589.263343  	86.467842 
590.227767  	86.373703 
591.192192  	86.021723 
592.156616  	85.906761 
593.121040  	86.402024 
594.085465  	86.635511 
595.049889  	86.567738 
596.014314  	86.584843 
596.978738  	86.669567 
597.943163  	86.792745 
598.907587  	86.623143 
599.872012  	85.967027 
600.836436  	85.966286 
601.800861  	86.158230 
602.765285  	86.124380 
603.729709  	86.157459 
604.694134  	86.381543 
605.658558  	86.603927 
606.622983  	86.535118 
607.587407  	86.404199 
608.551832  	86.467283 
609.516256  	86.536174 
610.480681  	86.386164 
611.445105  	86.197984 
612.409530  	86.209630 
613.373954  	86.233902 
614.338378  	85.956142 
615.302803  	85.693356 
616.267227  	85.602145 
617.231652  	85.813526 
618.196076  	86.024981 
619.160501  	86.106270 
620.124925  	86.191043 
621.089350  	86.406839 
622.053774  	86.172970 
623.018199  	86.199440 
623.982623  	85.888402 
624.947047  	85.595312 
625.911472  	85.197968 
626.875896  	85.204476 
627.840321  	85.203867 
628.804745  	85.149373 
629.769170  	84.703458 
630.733594  	84.263893 
631.698019  	84.113453 
632.662443  	84.161340 
633.626868  	84.455706 
634.591292  	85.045381 
635.555717  	85.081196 
636.520141  	85.272984 
637.484565  	85.444339 
638.448990  	85.588132 
639.413414  	85.446612 
640.377839  	85.282278 
641.342263  	85.302347 
642.306688  	85.106594 
643.271112  	85.068229 
644.235537  	85.109285 
645.199961  	85.109696 
646.164386  	85.211382 
647.128810  	85.217904 
648.093234  	84.995678 
649.057659  	84.904645 
650.022083  	84.834206 
650.986508  	84.716771 
651.950932  	84.588566 
652.915357  	84.476483 
653.879781  	84.412405 
654.844206  	84.257837 
655.808630  	84.147828 
656.773055  	84.097829 
657.737479  	84.190542 
658.701903  	83.998611 
659.666328  	83.790623 
660.630752  	83.854571 
661.595177  	83.858386 
662.559601  	83.735133 
663.524026  	83.583355 
664.488450  	83.491584 
665.452875  	83.265804 
666.417299  	83.097603 
667.381724  	83.302698 
668.346148  	83.238510 
669.310572  	82.506020 
670.274997  	82.344527 
671.239421  	82.322550 
672.203846  	82.286068 
673.168270  	82.126959 
674.132695  	81.758891 
675.097119  	81.452970 
676.061544  	81.113495 
677.025968  	80.762511 
677.990393  	80.506587 
678.954817  	80.379296 
679.919241  	80.249447 
680.883666  	80.120260 
681.848090  	80.008006 
682.812515  	80.023397 
683.776939  	79.907305 
684.741364  	79.611838 
685.705788  	79.391487 
686.670213  	79.362343 
687.634637  	79.028984 
688.599062  	78.645971 
689.563486  	78.337335 
690.527910  	78.042254 
691.492335  	77.595837 
692.456759  	77.167496 
693.421184  	76.572077 
694.385608  	75.964837 
695.350033  	75.262543 
696.314457  	74.554684 
697.278882  	73.650269 
698.243306  	72.538868 
699.207731  	71.483585 
700.172155  	70.620540 
701.136580  	69.653201 
702.101004  	68.778191 
703.065428  	68.024141 
704.029853  	67.376197 
704.994277  	66.587997 
705.958702  	65.708894 
706.923126  	64.706688 
707.887551  	63.733787 
708.851975  	62.782253 
709.816400  	61.635811 
710.780824  	60.352791 
711.745249  	59.100909 
712.709673  	57.774934 
713.674097  	56.266479 
714.638522  	54.708159 
715.602946  	53.149058 
716.567371  	51.531495 
717.531795  	50.014730 
718.496220  	48.464010 
719.460644  	47.118742 
720.425069  	46.254894 
721.389493  	45.882041 
722.353918  	45.890142 
723.318342  	46.490010 
724.282766  	47.903965 
725.247191  	49.943494 
726.211615  	52.263756 
727.176040  	54.732869 
728.140464  	57.185860 
729.104889  	59.661147 
730.069313  	62.130630 
731.033738  	64.681502 
731.998162  	67.179316 
732.962587  	69.830510 
733.927011  	72.436227 
734.891435  	75.019152 
735.855860  	77.555509 
736.820284  	79.981218 
737.784709  	82.227547 
738.749133  	84.192434 
739.713558  	85.891089 
740.677982  	87.349005 
741.642407  	88.473467 
742.606831  	89.403768 
743.571256  	90.059606 
744.535680  	90.458379 
745.500104  	90.828106 
746.464529  	91.212690 
747.428953  	91.444192 
748.393378  	91.507319 
749.357802  	91.414801 
750.322227  	91.416799 
751.286651  	91.458758 
752.251076  	91.507467 
753.215500  	91.497020 
754.179925  	91.451688 
755.144349  	91.442048 
756.108774  	91.457958 
757.073198  	91.406779 
758.037622  	91.310137 
759.002047  	91.143568 
759.966471  	91.102570 
760.930896  	91.051126 
761.895320  	90.966976 
762.859745  	90.925071 
763.824169  	90.923558 
764.788594  	90.760081 
765.753018  	90.577694 
766.717443  	90.501191 
767.681867  	90.372537 
768.646291  	90.186144 
769.610716  	90.087534 
770.575140  	89.934303 
771.539565  	89.865561 
772.503989  	89.639229 
773.468414  	89.446882 
774.432838  	89.331388 
775.397263  	89.209592 
776.361687  	89.020264 
777.326112  	88.919788 
778.290536  	88.791575 
779.254960  	88.795744 
780.219385  	88.792282 
781.183809  	89.040820 
782.148234  	88.574835 
783.112658  	88.008315 
784.077083  	87.675140 
785.041507  	87.343282 
786.005932  	87.043535 
786.970356  	86.696011 
787.934781  	86.407438 
788.899205  	86.031811 
789.863629  	85.751401 
790.828054  	85.400214 
791.792478  	84.913176 
792.756903  	84.719068 
793.721327  	84.958147 
794.685752  	85.310978 
795.650176  	85.920551 
796.614601  	86.649757 
797.579025  	87.180190 
798.543450  	87.377452 
799.507874  	87.526800 
800.472298  	87.692451 
801.436723  	87.769165 
802.401147  	87.705492 
803.365572  	87.567329 
804.329996  	87.520161 
805.294421  	87.456196 
806.258845  	87.475444 
807.223270  	87.553513 
808.187694  	87.551313 
809.152119  	87.548902 
810.116543  	87.514922 
811.080967  	87.522795 
812.045392  	87.478550 
813.009816  	87.364361 
813.974241  	87.330098 
814.938665  	87.440420 
815.903090  	87.483180 
816.867514  	87.419120 
817.831939  	87.361936 
818.796363  	87.327064 
819.760788  	87.251996 
820.725212  	87.227572 
821.689637  	87.135018 
822.654061  	86.964439 
823.618485  	86.834005 
824.582910  	86.709696 
825.547334  	86.491854 
826.511759  	86.291331 
827.476183  	86.122554 
828.440608  	85.956009 
829.405032  	85.744925 
830.369457  	85.551089 
831.333881  	85.373456 
832.298306  	85.174606 
833.262730  	84.827731 
834.227154  	84.499126 
835.191579  	84.214879 
836.156003  	83.867252 
837.120428  	83.501457 
838.084852  	83.113614 
839.049277  	82.763263 
840.013701  	82.415980 
840.978126  	81.964079 
841.942550  	81.554290 
842.906975  	81.125507 
843.871399  	80.606706 
844.835823  	80.061310 
845.800248  	79.742725 
846.764672  	79.662186 
847.729097  	79.701443 
848.693521  	79.822588 
849.657946  	80.139689 
850.622370  	80.646166 
851.586795  	81.108311 
852.551219  	81.382893 
853.515644  	81.645941 
854.480068  	81.888022 
855.444492  	82.042379 
856.408917  	82.154177 
857.373341  	82.340294 
858.337766  	82.505561 
859.302190  	82.637108 
860.266615  	82.693220 
861.231039  	82.654541 
862.195464  	82.555505 
863.159888  	82.272588 
864.124313  	81.877535 
865.088737  	81.432504 
866.053161  	80.766320 
867.017586  	79.637999 
867.982010  	78.112431 
868.946435  	76.241620 
869.910859  	73.923817 
870.875284  	71.557082 
871.839708  	70.202007 
872.804133  	70.913174 
873.768557  	73.327514 
874.732982  	75.874046 
875.697406  	77.874081 
876.661831  	79.377412 
877.626255  	80.588645 
878.590679  	81.678719 
879.555104  	82.651255 
880.519528  	83.482419 
881.483953  	84.160376 
882.448377  	84.741808 
883.412802  	85.316572 
884.377226  	85.897170 
885.341651  	86.347399 
886.306075  	86.579652 
887.270500  	86.789634 
888.234924  	87.049350 
889.199348  	87.097276 
890.163773  	87.052666 
891.128197  	87.106327 
892.092622  	87.143621 
893.057046  	87.034953 
894.021471  	86.897525 
894.985895  	86.888588 
895.950320  	86.828713 
896.914744  	86.742749 
897.879169  	86.767456 
898.843593  	86.792146 
899.808017  	86.879800 
900.772442  	86.920963 
901.736866  	86.919093 
902.701291  	87.104362 
903.665715  	87.329801 
904.630140  	87.452732 
905.594564  	87.577667 
906.558989  	87.753805 
907.523413  	87.950714 
908.487838  	88.037921 
909.452262  	88.142088 
910.416686  	88.376020 
911.381111  	88.530154 
912.345535  	88.530992 
913.309960  	88.552646 
914.274384  	88.607200 
915.238809  	88.647568 
916.203233  	88.642077 
917.167658  	88.654149 
918.132082  	88.682844 
919.096507  	88.708513 
920.060931  	88.718819 
921.025355  	88.702460 
921.989780  	88.610693 
922.954204  	88.541530 
923.918629  	88.465178 
924.883053  	88.427459 
925.847478  	88.405587 
926.811902  	88.326641 
927.776327  	88.276178 
928.740751  	88.224771 
929.705176  	88.202111 
930.669600  	88.139064 
931.634024  	88.085306 
932.598449  	88.058549 
933.562873  	87.997780 
934.527298  	87.939634 
935.491722  	87.785998 
936.456147  	87.685250 
937.420571  	87.653750 
938.384996  	87.499955 
939.349420  	87.336979 
940.313845  	87.274482 
941.278269  	87.224751 
942.242694  	87.129559 
943.207118  	87.003357 
944.171542  	86.897451 
945.135967  	86.769122 
946.100391  	86.634789 
947.064816  	86.509551 
948.029240  	86.387235 
948.993665  	86.234598 
949.958089  	86.053555 
950.922514  	85.909307 
951.886938  	85.783127 
952.851363  	85.540294 
953.815787  	85.281682 
954.780211  	85.095131 
955.744636  	84.934867 
956.709060  	84.745498 
957.673485  	84.465111 
958.637909  	84.131064 
959.602334  	83.793763 
960.566758  	83.464274 
961.531183  	83.129469 
962.495607  	82.760559 
963.460032  	82.415894 
964.424456  	82.059828 
965.388880  	81.622481 
966.353305  	81.205567 
967.317729  	80.896222 
968.282154  	80.578573 
969.246578  	80.283015 
970.211003  	80.114613 
971.175427  	80.090560 
972.139852  	80.192409 
973.104276  	80.396215 
974.068701  	80.699553 
975.033125  	81.031066 
975.997549  	81.391037 
976.961974  	81.753482 
977.926398  	82.121212 
978.890823  	82.419888 
979.855247  	82.620309 
980.819672  	82.805495 
981.784096  	82.989830 
982.748521  	83.123369 
983.712945  	83.182342 
984.677370  	83.172053 
985.641794  	83.144419 
986.606218  	83.107777 
987.570643  	83.080350 
988.535067  	83.042226 
989.499492  	83.058776 
990.463916  	83.050922 
991.428341  	83.044010 
992.392765  	83.007311 
993.357190  	82.949242 
994.321614  	82.908209 
995.286039  	82.818315 
996.250463  	82.696233 
997.214888  	82.504661 
998.179312  	82.319283 
999.143736  	82.106100 
1000.108161  	81.854829 
1001.072585  	81.631015 
1002.037010  	81.463712 
1003.001434  	81.204969 
1003.965859  	80.858893 
1004.930283  	80.495284 
1005.894708  	80.047108 
1006.859132  	79.517201 
1007.823557  	78.891561 
1008.787981  	78.158472 
1009.752405  	77.315354 
1010.716830  	76.226371 
1011.681254  	74.891081 
1012.645679  	73.300133 
1013.610103  	71.444697 
1014.574528  	69.461318 
1015.538952  	67.669312 
1016.503377  	66.494128 
1017.467801  	66.065171 
1018.432226  	66.286694 
1019.396650  	67.114063 
1020.361074  	68.328695 
1021.325499  	69.582565 
1022.289923  	70.730879 
1023.254348  	71.958573 
1024.218772  	73.450960 
1025.183197  	75.173704 
1026.147621  	76.897320 
1027.112046  	78.404942 
1028.076470  	79.446244 
1029.040895  	79.996744 
1030.005319  	80.223638 
1030.969743  	80.271228 
1031.934168  	80.285482 
1032.898592  	80.235910 
1033.863017  	80.045897 
1034.827441  	79.807645 
1035.791866  	79.613544 
1036.756290  	79.434030 
1037.720715  	79.284654 
1038.685139  	79.117519 
1039.649564  	79.002661 
1040.613988  	78.905474 
1041.578412  	78.751820 
1042.542837  	78.616075 
1043.507261  	78.578691 
1044.471686  	78.536944 
1045.436110  	78.477537 
1046.400535  	78.504274 
1047.364959  	78.549384 
1048.329384  	78.533844 
1049.293808  	78.572719 
1050.258233  	78.648288 
1051.222657  	78.708107 
1052.187081  	78.709248 
1053.151506  	78.686345 
1054.115930  	78.694979 
1055.080355  	78.670320 
1056.044779  	78.557515 
1057.009204  	78.394202 
1057.973628  	78.269924 
1058.938053  	78.090995 
1059.902477  	77.815814 
1060.866902  	77.512395 
1061.831326  	77.280100 
1062.795751  	77.008885 
1063.760175  	76.628638 
1064.724599  	76.198809 
1065.689024  	75.794141 
1066.653448  	75.347074 
1067.617873  	74.812354 
1068.582297  	74.237261 
1069.546722  	73.679378 
1070.511146  	73.054887 
1071.475571  	72.357657 
1072.439995  	71.630746 
1073.404420  	70.845090 
1074.368844  	69.922308 
1075.333268  	68.940205 
1076.297693  	67.940667 
1077.262117  	66.914933 
1078.226542  	65.916293 
1079.190966  	64.965533 
1080.155391  	63.981178 
1081.119815  	63.094085 
1082.084240  	62.308291 
1083.048664  	61.582813 
1084.013089  	60.969444 
1084.977513  	60.441785 
1085.941937  	59.889196 
1086.906362  	59.392732 
1087.870786  	59.006108 
1088.835211  	58.664500 
1089.799635  	58.321097 
1090.764060  	57.978177 
1091.728484  	57.707702 
1092.692909  	57.495338 
1093.657333  	57.280360 
1094.621758  	57.089789 
1095.586182  	57.011810 
1096.550606  	57.016761 
1097.515031  	57.104683 
1098.479455  	57.252423 
1099.443880  	57.462751 
1100.408304  	57.768673 
1101.372729  	58.131687 
1102.337153  	58.570881 
1103.301578  	59.114173 
1104.266002  	59.655249 
1105.230427  	60.162029 
1106.194851  	60.721345 
1107.159275  	61.333952 
1108.123700  	61.931414 
1109.088124  	62.435686 
1110.052549  	62.863170 
1111.016973  	63.250300 
1111.981398  	63.545097 
1112.945822  	63.766110 
1113.910247  	63.985525 
1114.874671  	64.117845 
1115.839096  	64.101055 
1116.803520  	63.971028 
1117.767945  	63.847746 
1118.732369  	63.842066 
1119.696793  	63.920800 
1120.661218  	64.017628 
1121.625642  	64.174553 
1122.590067  	64.460011 
1123.554491  	64.819804 
1124.518916  	65.211898 
1125.483340  	65.715781 
1126.447765  	66.330120 
1127.412189  	66.982218 
1128.376614  	67.711631 
1129.341038  	68.536046 
1130.305462  	69.467888 
1131.269887  	70.490530 
1132.234311  	71.530095 
1133.198736  	72.644442 
1134.163160  	73.810850 
1135.127585  	74.928767 
1136.092009  	76.066628 
1137.056434  	77.190265 
1138.020858  	78.281798 
1138.985283  	79.265087 
1139.949707  	80.116985 
1140.914131  	80.956388 
1141.878556  	81.740096 
1142.842980  	82.395602 
1143.807405  	83.062109 
1144.771829  	83.725558 
1145.736254  	84.293731 
1146.700678  	84.786028 
1147.665103  	85.210828 
1148.629527  	85.648328 
1149.593952  	86.063725 
1150.558376  	86.421961 
1151.522800  	86.705088 
1152.487225  	86.936271 
1153.451649  	87.160398 
1154.416074  	87.400731 
1155.380498  	87.597258 
1156.344923  	87.728334 
1157.309347  	87.849952 
1158.273772  	87.943174 
1159.238196  	87.954572 
1160.202621  	88.000645 
1161.167045  	88.078323 
1162.131469  	88.109378 
1163.095894  	88.070687 
1164.060318  	88.022540 
1165.024743  	87.974254 
1165.989167  	87.864448 
1166.953592  	87.692514 
1167.918016  	87.461099 
1168.882441  	87.159224 
1169.846865  	86.841532 
1170.811290  	86.531364 
1171.775714  	86.262632 
1172.740138  	86.099623 
1173.704563  	85.939205 
1174.668987  	85.822541 
1175.633412  	85.904215 
1176.597836  	86.053661 
1177.562261  	86.169483 
1178.526685  	86.295226 
1179.491110  	86.477090 
1180.455534  	86.660052 
1181.419959  	86.824784 
1182.384383  	86.942695 
1183.348808  	87.027303 
1184.313232  	87.105829 
1185.277656  	87.130391 
1186.242081  	87.088713 
1187.206505  	87.037491 
1188.170930  	86.980711 
1189.135354  	86.820233 
1190.099779  	86.639795 
1191.064203  	86.506065 
