##TITLE=No Description
##DATA TYPE=INFRARED SPECTRUM
##XUNITS=1/CM
##YUNITS=%T
400.236149  	118.184476 
401.200574  	107.164350 
402.164998  	86.641766 
403.129423  	79.733725 
404.093847  	95.831988 
405.058272  	97.602559 
406.022696  	87.314740 
406.987120  	95.600854 
407.951545  	103.630962 
408.915969  	87.560757 
409.880394  	81.975464 
410.844818  	90.683891 
411.809243  	99.652572 
412.773667  	98.262134 
413.738092  	89.203432 
414.702516  	77.351057 
415.666941  	75.270027 
416.631365  	81.526745 
417.595789  	84.214893 
418.560214  	87.398279 
419.524638  	86.675115 
420.489063  	78.924708 
421.453487  	75.539036 
422.417912  	75.504297 
423.382336  	79.054102 
424.346761  	79.079778 
425.311185  	75.227326 
426.275610  	75.544260 
427.240034  	77.277263 
428.204458  	77.609182 
429.168883  	75.270072 
430.133307  	71.468653 
431.097732  	69.079082 
432.062156  	69.124621 
433.026581  	69.054654 
433.991005  	69.515148 
434.955430  	70.612197 
435.919854  	72.610227 
436.884279  	73.102456 
437.848703  	73.971980 
438.813127  	75.737112 
439.777552  	77.154997 
440.741976  	77.063431 
441.706401  	78.175547 
442.670825  	79.390070 
443.635250  	77.908650 
444.599674  	78.531730 
445.564099  	80.128043 
446.528523  	81.288826 
447.492948  	81.675403 
448.457372  	82.826668 
449.421796  	82.435237 
450.386221  	81.357348 
451.350645  	81.581770 
452.315070  	81.147279 
453.279494  	80.799369 
454.243919  	81.741282 
455.208343  	81.449699 
456.172768  	81.345314 
457.137192  	81.036508 
458.101617  	80.443510 
459.066041  	80.340423 
460.030466  	79.852365 
460.994890  	80.005253 
461.959314  	80.274955 
462.923739  	80.485447 
463.888163  	80.373966 
464.852588  	79.979911 
465.817012  	80.728927 
466.781437  	80.902318 
467.745861  	79.973519 
468.710286  	79.782476 
469.674710  	79.325330 
470.639135  	78.719152 
471.603559  	79.125103 
472.567983  	80.261645 
473.532408  	79.707183 
474.496832  	79.002392 
475.461257  	79.240963 
476.425681  	78.867280 
477.390106  	78.706955 
478.354530  	79.244467 
479.318955  	78.994285 
480.283379  	78.744580 
481.247804  	79.165460 
482.212228  	79.038277 
483.176652  	79.252373 
484.141077  	79.270982 
485.105501  	78.770808 
486.069926  	78.322811 
487.034350  	78.465930 
487.998775  	78.601633 
488.963199  	78.586472 
489.927624  	78.454472 
490.892048  	77.364121 
491.856473  	76.507697 
492.820897  	76.762328 
493.785321  	76.553640 
494.749746  	75.919219 
495.714170  	75.382856 
496.678595  	75.126103 
497.643019  	74.784645 
498.607444  	74.435896 
499.571868  	73.835228 
500.536293  	73.630529 
501.500717  	73.664806 
502.465142  	73.203606 
503.429566  	72.959350 
504.393990  	72.760019 
505.358415  	72.544554 
506.322839  	72.708961 
507.287264  	73.515825 
508.251688  	75.015067 
509.216113  	76.841058 
510.180537  	77.856207 
511.144962  	78.737489 
512.109386  	79.405864 
513.073811  	79.648922 
514.038235  	79.821462 
515.002660  	79.842293 
515.967084  	79.630684 
516.931508  	79.737044 
517.895933  	79.986263 
518.860357  	79.907964 
519.824782  	79.669284 
520.789206  	79.846215 
521.753631  	80.207480 
522.718055  	80.243848 
523.682480  	80.011071 
524.646904  	79.978266 
525.611329  	80.301639 
526.575753  	80.306270 
527.540177  	80.436067 
528.504602  	80.603900 
529.469026  	80.376399 
530.433451  	80.038840 
531.397875  	80.342418 
532.362300  	80.889848 
533.326724  	81.445021 
534.291149  	81.263900 
535.255573  	81.192887 
536.219998  	81.940299 
537.184422  	82.390177 
538.148846  	81.909069 
539.113271  	81.860906 
540.077695  	81.838744 
541.042120  	81.802496 
542.006544  	82.170297 
542.970969  	82.256297 
543.935393  	82.499714 
544.899818  	82.479381 
545.864242  	82.566152 
546.828667  	82.603408 
547.793091  	82.043673 
548.757515  	81.900652 
549.721940  	82.557028 
550.686364  	82.639166 
551.650789  	82.884621 
552.615213  	82.872700 
553.579638  	82.926028 
554.544062  	82.811282 
555.508487  	82.599775 
556.472911  	82.453979 
557.437336  	82.570427 
558.401760  	82.859837 
559.366184  	82.973086 
560.330609  	82.768081 
561.295033  	82.432509 
562.259458  	82.371007 
563.223882  	82.287803 
564.188307  	82.175082 
565.152731  	82.493396 
566.117156  	82.550756 
567.081580  	82.180630 
568.046005  	82.287002 
569.010429  	82.509553 
569.974853  	82.424223 
570.939278  	82.224397 
571.903702  	82.223672 
572.868127  	82.306100 
573.832551  	82.250796 
574.796976  	82.278415 
575.761400  	81.862328 
576.725825  	81.883368 
577.690249  	82.079152 
578.654674  	82.036472 
579.619098  	81.963443 
580.583523  	81.954101 
581.547947  	82.056191 
582.512371  	82.234417 
583.476796  	82.064552 
584.441220  	81.828112 
585.405645  	82.059241 
586.370069  	82.349552 
587.334494  	82.169980 
588.298918  	82.100811 
589.263343  	81.990540 
590.227767  	81.984731 
591.192192  	81.815564 
592.156616  	81.540332 
593.121040  	81.791995 
594.085465  	82.016508 
595.049889  	81.976615 
596.014314  	81.792304 
596.978738  	81.660608 
597.943163  	81.667826 
598.907587  	81.577913 
599.872012  	81.465121 
600.836436  	81.488153 
601.800861  	81.582389 
602.765285  	81.560901 
603.729709  	81.580779 
604.694134  	81.590932 
605.658558  	81.469963 
606.622983  	81.344356 
607.587407  	81.228153 
608.551832  	81.140457 
609.516256  	81.091267 
610.480681  	80.990770 
611.445105  	81.071327 
612.409530  	81.251650 
613.373954  	81.324716 
614.338378  	81.177044 
615.302803  	80.771470 
616.267227  	80.485287 
617.231652  	80.730855 
618.196076  	80.837163 
619.160501  	80.673740 
620.124925  	80.469676 
621.089350  	80.368471 
622.053774  	80.541660 
623.018199  	80.617066 
623.982623  	80.338119 
624.947047  	80.062562 
625.911472  	79.950330 
626.875896  	79.894474 
627.840321  	79.629132 
628.804745  	79.332544 
629.769170  	78.769462 
630.733594  	78.046301 
631.698019  	77.889986 
632.662443  	78.300934 
633.626868  	78.886504 
634.591292  	79.292889 
635.555717  	79.505762 
636.520141  	79.785394 
637.484565  	79.860629 
638.448990  	79.854965 
639.413414  	79.847818 
640.377839  	79.848600 
641.342263  	79.845895 
642.306688  	79.672362 
643.271112  	79.618014 
644.235537  	79.592876 
645.199961  	79.418063 
646.164386  	79.315269 
647.128810  	79.254546 
648.093234  	79.122571 
649.057659  	79.055658 
650.022083  	78.944561 
650.986508  	78.824470 
651.950932  	78.724274 
652.915357  	78.600989 
653.879781  	78.485403 
654.844206  	78.458352 
655.808630  	78.322868 
656.773055  	78.116480 
657.737479  	78.149165 
658.701903  	78.129383 
659.666328  	77.906416 
660.630752  	77.631477 
661.595177  	77.517724 
662.559601  	77.515185 
663.524026  	77.370377 
664.488450  	77.161993 
665.452875  	76.939305 
666.417299  	76.860435 
667.381724  	76.911680 
668.346148  	76.891648 
669.310572  	76.439808 
670.274997  	76.151816 
671.239421  	76.040606 
672.203846  	75.898686 
673.168270  	75.636686 
674.132695  	75.248197 
675.097119  	74.961157 
676.061544  	74.521690 
677.025968  	74.088581 
677.990393  	73.734388 
678.954817  	73.420436 
679.919241  	73.185555 
680.883666  	73.168898 
681.848090  	73.113132 
682.812515  	73.078481 
683.776939  	73.092306 
684.741364  	73.035854 
685.705788  	72.817404 
686.670213  	72.703996 
687.634637  	72.513613 
688.599062  	72.149645 
689.563486  	71.796352 
690.527910  	71.427890 
691.492335  	71.003878 
692.456759  	70.447340 
693.421184  	69.818295 
694.385608  	69.338043 
695.350033  	68.663856 
696.314457  	67.834859 
697.278882  	66.964974 
698.243306  	66.059590 
699.207731  	65.050181 
700.172155  	64.040855 
701.136580  	63.080357 
702.101004  	62.280740 
703.065428  	61.634900 
704.029853  	60.963290 
704.994277  	60.149356 
705.958702  	59.341357 
706.923126  	58.406297 
707.887551  	57.520193 
708.851975  	56.766584 
709.816400  	55.785929 
710.780824  	54.631464 
711.745249  	53.522466 
712.709673  	52.330081 
713.674097  	50.978234 
714.638522  	49.546751 
715.602946  	48.089875 
716.567371  	46.653996 
717.531795  	45.191936 
718.496220  	43.613358 
719.460644  	42.113873 
720.425069  	40.744852 
721.389493  	39.529401 
722.353918  	38.584790 
723.318342  	38.125071 
724.282766  	38.231250 
725.247191  	39.169250 
726.211615  	40.994867 
727.176040  	43.461810 
728.140464  	46.164197 
729.104889  	49.001675 
730.069313  	51.873642 
731.033738  	54.758472 
731.998162  	57.679648 
732.962587  	60.770430 
733.927011  	63.856803 
734.891435  	66.914485 
735.855860  	69.977148 
736.820284  	72.940609 
737.784709  	75.673922 
738.749133  	78.094708 
739.713558  	80.145039 
740.677982  	81.886863 
741.642407  	83.151701 
742.606831  	84.045129 
743.571256  	84.702779 
744.535680  	85.055363 
745.500104  	85.235206 
746.464529  	85.346448 
747.428953  	85.301200 
748.393378  	85.249903 
749.357802  	85.061559 
750.322227  	84.921348 
751.286651  	84.812969 
752.251076  	84.644481 
753.215500  	84.559659 
754.179925  	84.351760 
755.144349  	84.214042 
756.108774  	84.142347 
757.073198  	83.962145 
758.037622  	83.760862 
759.002047  	83.498074 
759.966471  	83.294303 
760.930896  	83.091503 
761.895320  	82.911394 
762.859745  	82.879754 
763.824169  	82.837111 
764.788594  	82.557829 
765.753018  	82.267696 
766.717443  	82.068955 
767.681867  	81.849691 
768.646291  	81.532185 
769.610716  	81.321367 
770.575140  	81.184855 
771.539565  	81.012055 
772.503989  	80.718082 
773.468414  	80.482718 
774.432838  	80.327831 
775.397263  	80.159815 
776.361687  	79.941246 
777.326112  	79.740472 
778.290536  	79.524448 
779.254960  	79.325004 
780.219385  	79.086698 
781.183809  	78.759097 
782.148234  	78.448398 
783.112658  	78.261838 
784.077083  	77.997963 
785.041507  	77.678462 
786.005932  	77.321263 
786.970356  	76.773423 
787.934781  	76.145187 
788.899205  	75.680483 
789.863629  	75.348589 
790.828054  	75.030977 
791.792478  	74.722140 
792.756903  	74.686752 
793.721327  	75.019706 
794.685752  	75.635974 
795.650176  	76.522133 
796.614601  	77.472399 
797.579025  	78.119032 
798.543450  	78.251248 
799.507874  	78.178865 
800.472298  	78.237608 
801.436723  	78.267351 
802.401147  	78.192296 
803.365572  	78.066698 
804.329996  	78.008891 
805.294421  	77.936318 
806.258845  	77.799741 
807.223270  	77.740252 
808.187694  	77.685730 
809.152119  	77.644656 
810.116543  	77.543445 
811.080967  	77.399516 
812.045392  	77.309665 
813.009816  	77.222155 
813.974241  	77.207736 
814.938665  	77.230296 
815.903090  	77.221995 
816.867514  	77.168651 
817.831939  	77.089000 
818.796363  	76.963058 
819.760788  	76.822634 
820.725212  	76.761804 
821.689637  	76.571312 
822.654061  	76.378555 
823.618485  	76.200010 
824.582910  	75.955083 
825.547334  	75.678717 
826.511759  	75.469921 
827.476183  	75.331845 
828.440608  	75.118582 
829.405032  	74.756720 
830.369457  	74.453893 
831.333881  	74.173429 
832.298306  	73.851230 
833.262730  	73.512920 
834.227154  	73.209177 
835.191579  	72.903188 
836.156003  	72.505579 
837.120428  	72.068967 
838.084852  	71.670500 
839.049277  	71.332974 
840.013701  	70.908085 
840.978126  	70.420853 
841.942550  	70.045178 
842.906975  	69.614013 
843.871399  	69.136418 
844.835823  	68.715769 
845.800248  	68.465426 
846.764672  	68.475895 
847.729097  	68.729716 
848.693521  	69.103512 
849.657946  	69.678615 
850.622370  	70.346874 
851.586795  	70.928958 
852.551219  	71.341386 
853.515644  	71.698285 
854.480068  	72.043478 
855.444492  	72.276645 
856.408917  	72.426619 
857.373341  	72.633511 
858.337766  	72.872726 
859.302190  	73.020441 
860.266615  	73.015010 
861.231039  	72.899313 
862.195464  	72.718590 
863.159888  	72.358402 
864.124313  	71.939043 
865.088737  	71.364175 
866.053161  	70.603066 
867.017586  	69.570342 
867.982010  	68.182057 
868.946435  	66.431680 
869.910859  	64.288452 
870.875284  	62.066109 
871.839708  	60.722692 
872.804133  	61.245316 
873.768557  	63.422059 
874.732982  	65.873955 
875.697406  	67.747116 
876.661831  	69.132760 
877.626255  	70.307806 
878.590679  	71.388335 
879.555104  	72.289947 
880.519528  	72.994327 
881.483953  	73.600023 
882.448377  	74.174745 
883.412802  	74.756709 
884.377226  	75.248015 
885.341651  	75.582049 
886.306075  	75.773998 
887.270500  	75.924501 
888.234924  	76.095907 
889.199348  	76.135193 
890.163773  	76.060625 
891.128197  	76.024953 
892.092622  	76.006775 
893.057046  	75.881243 
894.021471  	75.728510 
894.985895  	75.708556 
895.950320  	75.620568 
896.914744  	75.473011 
897.879169  	75.385489 
898.843593  	75.412269 
899.808017  	75.476734 
900.772442  	75.569128 
901.736866  	75.632701 
902.701291  	75.776130 
903.665715  	75.972169 
904.630140  	76.114304 
905.594564  	76.177266 
906.558989  	76.308877 
907.523413  	76.527910 
908.487838  	76.671343 
909.452262  	76.722986 
910.416686  	76.824006 
911.381111  	76.937161 
912.345535  	76.956711 
913.309960  	76.897738 
914.274384  	76.858779 
915.238809  	76.855695 
916.203233  	76.804678 
917.167658  	76.748374 
918.132082  	76.749990 
919.096507  	76.733367 
920.060931  	76.675446 
921.025355  	76.569731 
921.989780  	76.463624 
922.954204  	76.333927 
923.918629  	76.226570 
924.883053  	76.153240 
925.847478  	76.036116 
926.811902  	75.879820 
927.776327  	75.766535 
928.740751  	75.646331 
929.705176  	75.546796 
930.669600  	75.466582 
931.634024  	75.300486 
932.598449  	75.138295 
933.562873  	75.009366 
934.527298  	74.874575 
935.491722  	74.729021 
936.456147  	74.595208 
937.420571  	74.497848 
938.384996  	74.296763 
939.349420  	74.093737 
940.313845  	73.966438 
941.278269  	73.853905 
942.242694  	73.691165 
943.207118  	73.462751 
944.171542  	73.292755 
945.135967  	73.142236 
946.100391  	72.931122 
947.064816  	72.694708 
948.029240  	72.486691 
948.993665  	72.295381 
949.958089  	72.058988 
950.922514  	71.823472 
951.886938  	71.652794 
952.851363  	71.423244 
953.815787  	71.115301 
954.780211  	70.877813 
955.744636  	70.676772 
956.709060  	70.450698 
957.673485  	70.172890 
958.637909  	69.884450 
959.602334  	69.595629 
960.566758  	69.307999 
961.531183  	68.998567 
962.495607  	68.686393 
963.460032  	68.414539 
964.424456  	68.116892 
965.388880  	67.772893 
966.353305  	67.531792 
967.317729  	67.429747 
968.282154  	67.316504 
969.246578  	67.247126 
970.211003  	67.328547 
971.175427  	67.506877 
972.139852  	67.764628 
973.104276  	68.163079 
974.068701  	68.670510 
975.033125  	69.206097 
975.997549  	69.686145 
976.961974  	70.066517 
977.926398  	70.381864 
978.890823  	70.648416 
979.855247  	70.846338 
980.819672  	70.990406 
981.784096  	71.069437 
982.748521  	71.041325 
983.712945  	70.930229 
984.677370  	70.744888 
985.641794  	70.578440 
986.606218  	70.386015 
987.570643  	70.191631 
988.535067  	70.053352 
989.499492  	69.966609 
990.463916  	69.859130 
991.428341  	69.715011 
992.392765  	69.555794 
993.357190  	69.388360 
994.321614  	69.186028 
995.286039  	68.970994 
996.250463  	68.734408 
997.214888  	68.471480 
998.179312  	68.221566 
999.143736  	67.922590 
1000.108161  	67.577102 
1001.072585  	67.222736 
1002.037010  	66.894014 
1003.001434  	66.510164 
1003.965859  	66.083335 
1004.930283  	65.664836 
1005.894708  	65.218495 
1006.859132  	64.678262 
1007.823557  	64.062766 
1008.787981  	63.388853 
1009.752405  	62.653384 
1010.716830  	61.795788 
1011.681254  	60.775372 
1012.645679  	59.614562 
1013.610103  	58.275168 
1014.574528  	56.844703 
1015.538952  	55.643179 
1016.503377  	55.054573 
1017.467801  	55.236314 
1018.432226  	56.129238 
1019.396650  	57.516302 
1020.361074  	59.174298 
1021.325499  	60.960361 
1022.289923  	62.786794 
1023.254348  	64.802744 
1024.218772  	67.129064 
1025.183197  	69.583085 
1026.147621  	71.733901 
1027.112046  	73.276670 
1028.076470  	74.067458 
1029.040895  	74.171692 
1030.005319  	73.789619 
1030.969743  	73.142936 
1031.934168  	72.454501 
1032.898592  	71.776256 
1033.863017  	71.031376 
1034.827441  	70.302639 
1035.791866  	69.698248 
1036.756290  	69.131941 
1037.720715  	68.605587 
1038.685139  	68.124950 
1039.649564  	67.691215 
1040.613988  	67.322957 
1041.578412  	66.996275 
1042.542837  	66.707315 
1043.507261  	66.503973 
1044.471686  	66.334183 
1045.436110  	66.153303 
1046.400535  	66.015134 
1047.364959  	65.960591 
1048.329384  	65.866693 
1049.293808  	65.761090 
1050.258233  	65.701226 
1051.222657  	65.673204 
1052.187081  	65.624414 
1053.151506  	65.526689 
1054.115930  	65.421934 
1055.080355  	65.262585 
1056.044779  	65.044189 
1057.009204  	64.807074 
1057.973628  	64.606125 
1058.938053  	64.381965 
1059.902477  	64.039747 
1060.866902  	63.638468 
1061.831326  	63.347116 
1062.795751  	63.029706 
1063.760175  	62.590324 
1064.724599  	62.142433 
1065.689024  	61.751659 
1066.653448  	61.317763 
1067.617873  	60.799659 
1068.582297  	60.279181 
1069.546722  	59.783383 
1070.511146  	59.235310 
1071.475571  	58.580058 
1072.439995  	57.931949 
1073.404420  	57.289417 
1074.368844  	56.545385 
1075.333268  	55.763335 
1076.297693  	54.974234 
1077.262117  	54.168955 
1078.226542  	53.353807 
1079.190966  	52.530642 
1080.155391  	51.726371 
1081.119815  	50.999708 
1082.084240  	50.325330 
1083.048664  	49.721919 
1084.013089  	49.226028 
1084.977513  	48.781946 
1085.941937  	48.363651 
1086.906362  	48.005455 
1087.870786  	47.716958 
1088.835211  	47.438147 
1089.799635  	47.139338 
1090.764060  	46.872347 
1091.728484  	46.740808 
1092.692909  	46.673833 
1093.657333  	46.569549 
1094.621758  	46.543938 
1095.586182  	46.623556 
1096.550606  	46.806567 
1097.515031  	47.041405 
1098.479455  	47.333118 
1099.443880  	47.726266 
1100.408304  	48.214737 
1101.372729  	48.735955 
1102.337153  	49.332314 
1103.301578  	50.039177 
1104.266002  	50.767814 
1105.230427  	51.468804 
1106.194851  	52.165435 
1107.159275  	52.883297 
1108.123700  	53.584931 
1109.088124  	54.209887 
1110.052549  	54.751176 
1111.016973  	55.202975 
1111.981398  	55.555001 
1112.945822  	55.823414 
1113.910247  	56.029538 
1114.874671  	56.092613 
1115.839096  	56.041590 
1116.803520  	56.004966 
1117.767945  	56.045796 
1118.732369  	56.242454 
1119.696793  	56.608562 
1120.661218  	57.062910 
1121.625642  	57.609756 
1122.590067  	58.271793 
1123.554491  	59.034942 
1124.518916  	59.899165 
1125.483340  	60.890495 
1126.447765  	61.985292 
1127.412189  	63.163456 
1128.376614  	64.387156 
1129.341038  	65.676721 
1130.305462  	67.059543 
1131.269887  	68.454500 
1132.234311  	69.792315 
1133.198736  	71.123477 
1134.163160  	72.427759 
1135.127585  	73.673787 
1136.092009  	74.834127 
1137.056434  	75.914032 
1138.020858  	76.949519 
1138.985283  	77.885481 
1139.949707  	78.715023 
1140.914131  	79.515636 
1141.878556  	80.255744 
1142.842980  	80.904294 
1143.807405  	81.538614 
1144.771829  	82.135424 
1145.736254  	82.649549 
1146.700678  	83.130613 
1147.665103  	83.547739 
1148.629527  	83.915355 
1149.593952  	84.253674 
1150.558376  	84.566434 
1151.522800  	84.837010 
1152.487225  	85.073286 
1153.451649  	85.276642 
1154.416074  	85.442080 
1155.380498  	85.519364 
1156.344923  	85.600668 
1157.309347  	85.680878 
1158.273772  	85.682179 
1159.238196  	85.622631 
1160.202621  	85.602327 
1161.167045  	85.544041 
1162.131469  	85.392142 
1163.095894  	85.201266 
1164.060318  	84.998225 
1165.024743  	84.740961 
1165.989167  	84.386374 
1166.953592  	83.965358 
1167.918016  	83.459147 
1168.882441  	82.882607 
1169.846865  	82.281173 
1170.811290  	81.680080 
1171.775714  	81.131829 
1172.740138  	80.714361 
1173.704563  	80.372881 
1174.668987  	80.068182 
1175.633412  	79.892543 
1176.597836  	79.794085 
1177.562261  	79.712794 
1178.526685  	79.616046 
1179.491110  	79.533209 
1180.455534  	79.436486 
1181.419959  	79.345089 
1182.384383  	79.188113 
1183.348808  	78.980597 
1184.313232  	78.759527 
1185.277656  	78.419719 
1186.242081  	78.010274 
1187.206505  	77.603288 
1188.170930  	77.128502 
1189.135354  	76.593387 
1190.099779  	76.056157 
1191.064203  	75.530805 
