##TITLE=No Description
##DATA TYPE=INFRARED SPECTRUM
##XUNITS=1/CM
##YUNITS=%T
400.236149  	121.644817 
401.200574  	112.193511 
402.164998  	94.767619 
403.129423  	98.945102 
404.093847  	106.721315 
405.058272  	90.691677 
406.022696  	87.179486 
406.987120  	87.556264 
407.951545  	87.018832 
408.915969  	79.030798 
409.880394  	80.801254 
410.844818  	97.236235 
411.809243  	106.573071 
412.773667  	100.419099 
413.738092  	89.513478 
414.702516  	79.322550 
415.666941  	77.680078 
416.631365  	85.645614 
417.595789  	94.943911 
418.560214  	94.894072 
419.524638  	88.136707 
420.489063  	84.947783 
421.453487  	84.275289 
422.417912  	85.703634 
423.382336  	87.382825 
424.346761  	85.534358 
425.311185  	82.770849 
426.275610  	85.294888 
427.240034  	86.559313 
428.204458  	87.539838 
429.168883  	88.359999 
430.133307  	86.732432 
431.097732  	83.542748 
432.062156  	80.529664 
433.026581  	78.418451 
433.991005  	79.080052 
434.955430  	79.981653 
435.919854  	79.793059 
436.884279  	79.718410 
437.848703  	81.075687 
438.813127  	82.593881 
439.777552  	83.520582 
440.741976  	84.029650 
441.706401  	84.307386 
442.670825  	84.740009 
443.635250  	84.438030 
444.599674  	84.113195 
445.564099  	83.881296 
446.528523  	84.229444 
447.492948  	85.688139 
448.457372  	86.675393 
449.421796  	85.672864 
450.386221  	84.534352 
451.350645  	85.105776 
452.315070  	84.616892 
453.279494  	84.698908 
454.243919  	86.376984 
455.208343  	86.162880 
456.172768  	85.406750 
457.137192  	85.831711 
458.101617  	86.109433 
459.066041  	85.798908 
460.030466  	85.433642 
460.994890  	85.585823 
461.959314  	85.685433 
462.923739  	85.638356 
463.888163  	85.696535 
464.852588  	85.802860 
465.817012  	86.442337 
466.781437  	86.054959 
467.745861  	84.529953 
468.710286  	83.585466 
469.674710  	83.011366 
470.639135  	83.464885 
471.603559  	83.422045 
472.567983  	84.191235 
473.532408  	85.377182 
474.496832  	84.553264 
475.461257  	84.871683 
476.425681  	84.612759 
477.390106  	84.981871 
478.354530  	85.879888 
479.318955  	85.402028 
480.283379  	84.598470 
481.247804  	84.720814 
482.212228  	84.810162 
483.176652  	85.349316 
484.141077  	85.431466 
485.105501  	84.298866 
486.069926  	83.672382 
487.034350  	84.339083 
487.998775  	84.928251 
488.963199  	85.099157 
489.927624  	85.170909 
490.892048  	84.100637 
491.856473  	83.102544 
492.820897  	83.377411 
493.785321  	83.600977 
494.749746  	83.031691 
495.714170  	82.822896 
496.678595  	82.515307 
497.643019  	81.990319 
498.607444  	81.836388 
499.571868  	81.238669 
500.536293  	80.787797 
501.500717  	80.564526 
502.465142  	80.262010 
503.429566  	80.195176 
504.393990  	80.197964 
505.358415  	80.195231 
506.322839  	79.465584 
507.287264  	79.458502 
508.251688  	80.841769 
509.216113  	82.301465 
510.180537  	83.076444 
511.144962  	83.677899 
512.109386  	84.456398 
513.073811  	84.890949 
514.038235  	84.878567 
515.002660  	84.580047 
515.967084  	84.260987 
516.931508  	84.244870 
517.895933  	84.799690 
518.860357  	84.873431 
519.824782  	84.468178 
520.789206  	85.125933 
521.753631  	85.601449 
522.718055  	85.393899 
523.682480  	84.826611 
524.646904  	84.532039 
525.611329  	84.429453 
526.575753  	84.773116 
527.540177  	85.575941 
528.504602  	86.117800 
529.469026  	86.254060 
530.433451  	86.205364 
531.397875  	86.454832 
532.362300  	86.674605 
533.326724  	86.916540 
534.291149  	86.736641 
535.255573  	86.438451 
536.219998  	86.418110 
537.184422  	87.064602 
538.148846  	87.040406 
539.113271  	87.015782 
540.077695  	86.986733 
541.042120  	87.228992 
542.006544  	87.527000 
542.970969  	87.612148 
543.935393  	87.586684 
544.899818  	87.399982 
545.864242  	87.351042 
546.828667  	87.483472 
547.793091  	87.435356 
548.757515  	87.690021 
549.721940  	88.093258 
550.686364  	88.161368 
551.650789  	88.530793 
552.615213  	88.106400 
553.579638  	88.199381 
554.544062  	88.171840 
555.508487  	88.050385 
556.472911  	88.194373 
557.437336  	88.134194 
558.401760  	88.074645 
559.366184  	88.310122 
560.330609  	88.312551 
561.295033  	88.348492 
562.259458  	88.399181 
563.223882  	87.979165 
564.188307  	87.648384 
565.152731  	87.961374 
566.117156  	88.012899 
567.081580  	87.680557 
568.046005  	87.818436 
569.010429  	87.964849 
569.974853  	88.008704 
570.939278  	87.903969 
571.903702  	87.729884 
572.868127  	87.825066 
573.832551  	87.797141 
574.796976  	87.872535 
575.761400  	87.295163 
576.725825  	87.283877 
577.690249  	87.718908 
578.654674  	87.970222 
579.619098  	87.942885 
580.583523  	87.619171 
581.547947  	87.911409 
582.512371  	88.245470 
583.476796  	88.062618 
584.441220  	87.693152 
585.405645  	87.665848 
586.370069  	88.093276 
587.334494  	88.282016 
588.298918  	88.388582 
589.263343  	88.303251 
590.227767  	88.194245 
591.192192  	87.852448 
592.156616  	87.692875 
593.121040  	88.121357 
594.085465  	88.287153 
595.049889  	88.257664 
596.014314  	88.182328 
596.978738  	88.154700 
597.943163  	88.142408 
598.907587  	88.044204 
599.872012  	87.790621 
600.836436  	87.868781 
601.800861  	88.038607 
602.765285  	87.846740 
603.729709  	87.871834 
604.694134  	88.002229 
605.658558  	88.003503 
606.622983  	87.980964 
607.587407  	87.710951 
608.551832  	87.695720 
609.516256  	87.976957 
610.480681  	87.956006 
611.445105  	87.863422 
612.409530  	87.889268 
613.373954  	87.961029 
614.338378  	87.707234 
615.302803  	87.427574 
616.267227  	87.577308 
617.231652  	87.698204 
618.196076  	87.722266 
619.160501  	87.684734 
620.124925  	87.297165 
621.089350  	87.109780 
622.053774  	87.182456 
623.018199  	87.444539 
623.982623  	87.269830 
624.947047  	87.093702 
625.911472  	86.890058 
626.875896  	86.888983 
627.840321  	86.701169 
628.804745  	86.582472 
629.769170  	86.162050 
630.733594  	85.468553 
631.698019  	85.236464 
632.662443  	85.417989 
633.626868  	85.739085 
634.591292  	86.173310 
635.555717  	86.239242 
636.520141  	86.661993 
637.484565  	86.740807 
638.448990  	86.646818 
639.413414  	86.618862 
640.377839  	86.652325 
641.342263  	86.521898 
642.306688  	86.250300 
643.271112  	86.285404 
644.235537  	86.331419 
645.199961  	86.288571 
646.164386  	86.324566 
647.128810  	86.212589 
648.093234  	86.000103 
649.057659  	85.840485 
650.022083  	85.872906 
650.986508  	85.918696 
651.950932  	85.768384 
652.915357  	85.613326 
653.879781  	85.606152 
654.844206  	85.585205 
655.808630  	85.439156 
656.773055  	85.297199 
657.737479  	85.297225 
658.701903  	85.108144 
659.666328  	84.866600 
660.630752  	84.813431 
661.595177  	84.807121 
662.559601  	84.727746 
663.524026  	84.623538 
664.488450  	84.488795 
665.452875  	84.324281 
666.417299  	84.301103 
667.381724  	84.415681 
668.346148  	83.550562 
669.310572  	83.225086 
670.274997  	83.292625 
671.239421  	83.275900 
672.203846  	83.159774 
673.168270  	82.907852 
674.132695  	82.474651 
675.097119  	82.076257 
676.061544  	81.658882 
677.025968  	81.330126 
677.990393  	80.979977 
678.954817  	80.704395 
679.919241  	80.528816 
680.883666  	80.334437 
681.848090  	80.311103 
682.812515  	80.320787 
683.776939  	80.125536 
684.741364  	79.896576 
685.705788  	79.616920 
686.670213  	79.469309 
687.634637  	79.067808 
688.599062  	78.651437 
689.563486  	78.185889 
690.527910  	77.767202 
691.492335  	77.324046 
692.456759  	76.827612 
693.421184  	76.174608 
694.385608  	75.532707 
695.350033  	74.740072 
696.314457  	73.789307 
697.278882  	72.666707 
698.243306  	71.482553 
699.207731  	70.294474 
700.172155  	69.143516 
701.136580  	67.920489 
702.101004  	66.835072 
703.065428  	65.869634 
704.029853  	64.913822 
704.994277  	63.843280 
705.958702  	62.837047 
706.923126  	61.696170 
707.887551  	60.414693 
708.851975  	59.065156 
709.816400  	57.634785 
710.780824  	56.035147 
711.745249  	54.327321 
712.709673  	52.601618 
713.674097  	50.697754 
714.638522  	48.617895 
715.602946  	46.431031 
716.567371  	44.235377 
717.531795  	42.200860 
718.496220  	40.302768 
719.460644  	38.863790 
720.425069  	37.895485 
721.389493  	37.618209 
722.353918  	37.903255 
723.318342  	38.837208 
724.282766  	40.616879 
725.247191  	43.159824 
726.211615  	46.055290 
727.176040  	49.188493 
728.140464  	52.219575 
729.104889  	55.099944 
730.069313  	57.926779 
731.033738  	60.884725 
731.998162  	63.843497 
732.962587  	66.814720 
733.927011  	69.739446 
734.891435  	72.653434 
735.855860  	75.537065 
736.820284  	78.334019 
737.784709  	80.920955 
738.749133  	83.244856 
739.713558  	85.187966 
740.677982  	86.801280 
741.642407  	88.148665 
742.606831  	89.295790 
743.571256  	90.086433 
744.535680  	90.599375 
745.500104  	91.090551 
746.464529  	91.536026 
747.428953  	91.711399 
748.393378  	91.812761 
749.357802  	91.835379 
750.322227  	91.890376 
751.286651  	91.923981 
752.251076  	92.007731 
753.215500  	92.071574 
754.179925  	92.063809 
755.144349  	92.057921 
756.108774  	92.048006 
757.073198  	92.037680 
758.037622  	92.047745 
759.002047  	91.873164 
759.966471  	91.753342 
760.930896  	91.727093 
761.895320  	91.673457 
762.859745  	91.617349 
763.824169  	91.626680 
764.788594  	91.514746 
765.753018  	91.328443 
766.717443  	91.149383 
767.681867  	91.002369 
768.646291  	90.836833 
769.610716  	90.729439 
770.575140  	90.588589 
771.539565  	90.453000 
772.503989  	90.170730 
773.468414  	90.010084 
774.432838  	90.001669 
775.397263  	89.914452 
776.361687  	89.722628 
777.326112  	89.614990 
778.290536  	89.514156 
779.254960  	89.339009 
780.219385  	89.067993 
781.183809  	89.131135 
782.148234  	88.954587 
783.112658  	88.844879 
784.077083  	88.414667 
785.041507  	87.906667 
786.005932  	87.590923 
786.970356  	87.063011 
787.934781  	86.485354 
788.899205  	85.996604 
789.863629  	85.667677 
790.828054  	85.299176 
791.792478  	84.872825 
792.756903  	84.674797 
793.721327  	84.864242 
794.685752  	85.280384 
795.650176  	85.941400 
796.614601  	86.701750 
797.579025  	87.295000 
798.543450  	87.523486 
799.507874  	87.633830 
800.472298  	87.848205 
801.436723  	87.949254 
802.401147  	87.884809 
803.365572  	87.839035 
804.329996  	87.883663 
805.294421  	87.838194 
806.258845  	87.785864 
807.223270  	87.817300 
808.187694  	87.859866 
809.152119  	87.870583 
810.116543  	87.847862 
811.080967  	87.848326 
812.045392  	87.832110 
813.009816  	87.762678 
813.974241  	87.728566 
814.938665  	87.770157 
815.903090  	87.766793 
816.867514  	87.708426 
817.831939  	87.667506 
818.796363  	87.654150 
819.760788  	87.581964 
820.725212  	87.528020 
821.689637  	87.416738 
822.654061  	87.310430 
823.618485  	87.182694 
824.582910  	87.026977 
825.547334  	86.790183 
826.511759  	86.546307 
827.476183  	86.392672 
828.440608  	86.207121 
829.405032  	85.895305 
830.369457  	85.570364 
831.333881  	85.399950 
832.298306  	85.214412 
833.262730  	84.873917 
834.227154  	84.531104 
835.191579  	84.203758 
836.156003  	83.819502 
837.120428  	83.350636 
838.084852  	82.860311 
839.049277  	82.457996 
840.013701  	82.047036 
840.978126  	81.569823 
841.942550  	81.174071 
842.906975  	80.633557 
843.871399  	79.985071 
844.835823  	79.427215 
845.800248  	78.978716 
846.764672  	78.688912 
847.729097  	78.657028 
848.693521  	78.802703 
849.657946  	79.142100 
850.622370  	79.666136 
851.586795  	80.136647 
852.551219  	80.437452 
853.515644  	80.753989 
854.480068  	81.052248 
855.444492  	81.187867 
856.408917  	81.323088 
857.373341  	81.528545 
858.337766  	81.692567 
859.302190  	81.786059 
860.266615  	81.860020 
861.231039  	81.899950 
862.195464  	81.787436 
863.159888  	81.444114 
864.124313  	81.025382 
865.088737  	80.464808 
866.053161  	79.588661 
867.017586  	78.316459 
867.982010  	76.569190 
868.946435  	74.288126 
869.910859  	71.425472 
870.875284  	68.485583 
871.839708  	66.852350 
872.804133  	67.773328 
873.768557  	70.691667 
874.732982  	73.871326 
875.697406  	76.350688 
876.661831  	78.128102 
877.626255  	79.578415 
878.590679  	80.877542 
879.555104  	81.989267 
880.519528  	82.910444 
881.483953  	83.701305 
882.448377  	84.437677 
883.412802  	85.134844 
884.377226  	85.772250 
885.341651  	86.249960 
886.306075  	86.581063 
887.270500  	86.952690 
888.234924  	87.244183 
889.199348  	87.304417 
890.163773  	87.267777 
891.128197  	87.301325 
892.092622  	87.288573 
893.057046  	87.219898 
894.021471  	87.193345 
894.985895  	87.191302 
895.950320  	87.104878 
896.914744  	87.021049 
897.879169  	87.025071 
898.843593  	87.072340 
899.808017  	87.139619 
900.772442  	87.173495 
901.736866  	87.257923 
902.701291  	87.470010 
903.665715  	87.699504 
904.630140  	87.843302 
905.594564  	87.963498 
906.558989  	88.185856 
907.523413  	88.440386 
908.487838  	88.568025 
909.452262  	88.706672 
910.416686  	88.927220 
911.381111  	89.138961 
912.345535  	89.211680 
913.309960  	89.265940 
914.274384  	89.306188 
915.238809  	89.327623 
916.203233  	89.345429 
917.167658  	89.424857 
918.132082  	89.486483 
919.096507  	89.516364 
920.060931  	89.591092 
921.025355  	89.629522 
921.989780  	89.559342 
922.954204  	89.469704 
923.918629  	89.426622 
924.883053  	89.403544 
925.847478  	89.379983 
926.811902  	89.320252 
927.776327  	89.261157 
928.740751  	89.214733 
929.705176  	89.208460 
930.669600  	89.149667 
931.634024  	89.075702 
932.598449  	89.044514 
933.562873  	88.986633 
934.527298  	88.900357 
935.491722  	88.767647 
936.456147  	88.694769 
937.420571  	88.695100 
938.384996  	88.606612 
939.349420  	88.504266 
940.313845  	88.466735 
941.278269  	88.399426 
942.242694  	88.267480 
943.207118  	88.133599 
944.171542  	88.022233 
945.135967  	87.914230 
946.100391  	87.782417 
947.064816  	87.627832 
948.029240  	87.527798 
948.993665  	87.427403 
949.958089  	87.289828 
950.922514  	87.134382 
951.886938  	86.981950 
952.851363  	86.761153 
953.815787  	86.497331 
954.780211  	86.315438 
955.744636  	86.172953 
956.709060  	85.953564 
957.673485  	85.635574 
958.637909  	85.303460 
959.602334  	84.979056 
960.566758  	84.667121 
961.531183  	84.321795 
962.495607  	83.922678 
963.460032  	83.539890 
964.424456  	83.114946 
965.388880  	82.601051 
966.353305  	82.132740 
967.317729  	81.741918 
968.282154  	81.362186 
969.246578  	80.995726 
970.211003  	80.749333 
971.175427  	80.640953 
972.139852  	80.673569 
973.104276  	80.858469 
974.068701  	81.195813 
975.033125  	81.622110 
975.997549  	82.070788 
976.961974  	82.505987 
977.926398  	82.972565 
978.890823  	83.422563 
979.855247  	83.764704 
980.819672  	84.037381 
981.784096  	84.327763 
982.748521  	84.578180 
983.712945  	84.677622 
984.677370  	84.687847 
985.641794  	84.719467 
986.606218  	84.739202 
987.570643  	84.704730 
988.535067  	84.672366 
989.499492  	84.700022 
990.463916  	84.731038 
991.428341  	84.805607 
992.392765  	84.846790 
993.357190  	84.849183 
994.321614  	84.821122 
995.286039  	84.767519 
996.250463  	84.689829 
997.214888  	84.564239 
998.179312  	84.419508 
999.143736  	84.247515 
1000.108161  	84.021118 
1001.072585  	83.788193 
1002.037010  	83.572525 
1003.001434  	83.281581 
1003.965859  	82.928263 
1004.930283  	82.517223 
1005.894708  	82.042928 
1006.859132  	81.453242 
1007.823557  	80.709106 
1008.787981  	79.872280 
1009.752405  	78.878375 
1010.716830  	77.607202 
1011.681254  	76.020891 
1012.645679  	74.094062 
1013.610103  	71.755735 
1014.574528  	69.222230 
1015.538952  	66.950754 
1016.503377  	65.366776 
1017.467801  	64.705694 
1018.432226  	64.984697 
1019.396650  	65.924487 
1020.361074  	67.266644 
1021.325499  	68.740506 
1022.289923  	70.042003 
1023.254348  	71.283927 
1024.218772  	72.806190 
1025.183197  	74.748606 
1026.147621  	76.792364 
1027.112046  	78.541911 
1028.076470  	79.778547 
1029.040895  	80.508639 
1030.005319  	80.889777 
1030.969743  	81.022456 
1031.934168  	81.070702 
1032.898592  	81.053073 
1033.863017  	80.936715 
1034.827441  	80.740571 
1035.791866  	80.513444 
1036.756290  	80.319116 
1037.720715  	80.122809 
1038.685139  	79.899806 
1039.649564  	79.727255 
1040.613988  	79.616356 
1041.578412  	79.471150 
1042.542837  	79.381129 
1043.507261  	79.370830 
1044.471686  	79.338930 
1045.436110  	79.344706 
1046.400535  	79.436636 
1047.364959  	79.554560 
1048.329384  	79.629308 
1049.293808  	79.717598 
1050.258233  	79.891841 
1051.222657  	80.060916 
1052.187081  	80.148663 
1053.151506  	80.194007 
1054.115930  	80.268701 
1055.080355  	80.291048 
1056.044779  	80.217258 
1057.009204  	80.091064 
1057.973628  	79.906044 
1058.938053  	79.695537 
1059.902477  	79.410976 
1060.866902  	79.048365 
1061.831326  	78.725093 
1062.795751  	78.355055 
1063.760175  	77.821981 
1064.724599  	77.239539 
1065.689024  	76.713706 
1066.653448  	76.142704 
1067.617873  	75.452729 
1068.582297  	74.720659 
1069.546722  	73.974399 
1070.511146  	73.159438 
1071.475571  	72.265108 
1072.439995  	71.356269 
1073.404420  	70.391221 
1074.368844  	69.268314 
1075.333268  	68.045537 
1076.297693  	66.779157 
1077.262117  	65.493625 
1078.226542  	64.169825 
1079.190966  	62.840323 
1080.155391  	61.567164 
1081.119815  	60.413684 
1082.084240  	59.315932 
1083.048664  	58.342907 
1084.013089  	57.525700 
1084.977513  	56.796516 
1085.941937  	56.089858 
1086.906362  	55.525674 
1087.870786  	55.059387 
1088.835211  	54.573858 
1089.799635  	54.073178 
1090.764060  	53.628077 
1091.728484  	53.299452 
1092.692909  	52.993046 
1093.657333  	52.678148 
1094.621758  	52.494005 
1095.586182  	52.474169 
1096.550606  	52.455150 
1097.515031  	52.498782 
1098.479455  	52.726992 
1099.443880  	53.049672 
1100.408304  	53.366493 
1101.372729  	53.773298 
1102.337153  	54.365153 
1103.301578  	54.985639 
1104.266002  	55.559488 
1105.230427  	56.193669 
1106.194851  	56.942263 
1107.159275  	57.669837 
1108.123700  	58.323016 
1109.088124  	58.943119 
1110.052549  	59.511298 
1111.016973  	59.938231 
1111.981398  	60.204332 
1112.945822  	60.442535 
1113.910247  	60.671313 
1114.874671  	60.735942 
1115.839096  	60.646104 
1116.803520  	60.509532 
1117.767945  	60.330418 
1118.732369  	60.146993 
1119.696793  	60.077908 
1120.661218  	60.154435 
1121.625642  	60.296725 
1122.590067  	60.497655 
1123.554491  	60.781093 
1124.518916  	61.152113 
1125.483340  	61.592758 
1126.447765  	62.076255 
1127.412189  	62.661351 
1128.376614  	63.385525 
1129.341038  	64.180942 
1130.305462  	65.111078 
1131.269887  	66.203957 
1132.234311  	67.351061 
1133.198736  	68.559138 
1134.163160  	69.860577 
1135.127585  	71.212565 
1136.092009  	72.563900 
1137.056434  	73.910650 
1138.020858  	75.265702 
1138.985283  	76.514376 
1139.949707  	77.607562 
1140.914131  	78.660632 
1141.878556  	79.643618 
1142.842980  	80.515579 
1143.807405  	81.366210 
1144.771829  	82.178560 
1145.736254  	82.905564 
1146.700678  	83.568225 
1147.665103  	84.139561 
1148.629527  	84.651935 
1149.593952  	85.165259 
1150.558376  	85.640206 
1151.522800  	86.042977 
1152.487225  	86.384925 
1153.451649  	86.697257 
1154.416074  	87.026295 
1155.380498  	87.278282 
1156.344923  	87.478066 
1157.309347  	87.683388 
1158.273772  	87.831013 
1159.238196  	87.879647 
1160.202621  	87.978653 
1161.167045  	88.074476 
1162.131469  	88.075952 
1163.095894  	88.045031 
1164.060318  	88.029713 
1165.024743  	87.953993 
1165.989167  	87.798746 
1166.953592  	87.557410 
1167.918016  	87.252161 
1168.882441  	86.910223 
1169.846865  	86.511844 
1170.811290  	86.116071 
1171.775714  	85.807913 
1172.740138  	85.595359 
1173.704563  	85.422068 
1174.668987  	85.289412 
1175.633412  	85.371604 
1176.597836  	85.551851 
1177.562261  	85.699039 
1178.526685  	85.840909 
1179.491110  	86.046693 
1180.455534  	86.273778 
1181.419959  	86.488249 
1182.384383  	86.666986 
1183.348808  	86.831379 
1184.313232  	86.998683 
1185.277656  	87.069762 
1186.242081  	87.062740 
1187.206505  	87.062288 
1188.170930  	87.036636 
1189.135354  	86.920313 
1190.099779  	86.786489 
1191.064203  	86.679012 
