##TITLE=No Description
##DATA TYPE=INFRARED SPECTRUM
##XUNITS=1/CM
##YUNITS=%T
400.236149  	116.794157 
401.200574  	105.759439 
402.164998  	76.542181 
403.129423  	73.762717 
404.093847  	82.689603 
405.058272  	89.003850 
406.022696  	87.256344 
406.987120  	78.028494 
407.951545  	74.532578 
408.915969  	71.356283 
409.880394  	69.567722 
410.844818  	79.859947 
411.809243  	92.555628 
412.773667  	95.148850 
413.738092  	87.208421 
414.702516  	76.541311 
415.666941  	73.353109 
416.631365  	76.644133 
417.595789  	82.627168 
418.560214  	80.136196 
419.524638  	72.486929 
420.489063  	77.078127 
421.453487  	77.770952 
422.417912  	80.596522 
423.382336  	78.762187 
424.346761  	74.371418 
425.311185  	71.465769 
426.275610  	71.867746 
427.240034  	72.004406 
428.204458  	72.695086 
429.168883  	73.142984 
430.133307  	73.843757 
431.097732  	73.798196 
432.062156  	71.416925 
433.026581  	68.671248 
433.991005  	70.052734 
434.955430  	71.185175 
435.919854  	70.533125 
436.884279  	72.347191 
437.848703  	74.624038 
438.813127  	75.285159 
439.777552  	76.095799 
440.741976  	75.247512 
441.706401  	77.559529 
442.670825  	81.094875 
443.635250  	80.427531 
444.599674  	79.649249 
445.564099  	79.060228 
446.528523  	79.988901 
447.492948  	81.788949 
448.457372  	83.157366 
449.421796  	82.475942 
450.386221  	82.039240 
451.350645  	82.268559 
452.315070  	81.678603 
453.279494  	81.046590 
454.243919  	80.533069 
455.208343  	80.072486 
456.172768  	79.761714 
457.137192  	79.107524 
458.101617  	79.766557 
459.066041  	80.993002 
460.030466  	80.889315 
460.994890  	80.315114 
461.959314  	79.704485 
462.923739  	79.848141 
463.888163  	79.899990 
464.852588  	79.892989 
465.817012  	80.858587 
466.781437  	81.087906 
467.745861  	79.767961 
468.710286  	78.666293 
469.674710  	78.670056 
470.639135  	78.877927 
471.603559  	78.479388 
472.567983  	78.708703 
473.532408  	79.437199 
474.496832  	79.295783 
475.461257  	79.529354 
476.425681  	79.099192 
477.390106  	79.177647 
478.354530  	79.851491 
479.318955  	79.436404 
480.283379  	78.635670 
481.247804  	78.815727 
482.212228  	78.558009 
483.176652  	78.727206 
484.141077  	79.077070 
485.105501  	78.690452 
486.069926  	77.971251 
487.034350  	78.234567 
487.998775  	78.410907 
488.963199  	78.658017 
489.927624  	78.580766 
490.892048  	77.937927 
491.856473  	77.237200 
492.820897  	77.285714 
493.785321  	76.826644 
494.749746  	75.912739 
495.714170  	75.653140 
496.678595  	75.550287 
497.643019  	75.455257 
498.607444  	74.736864 
499.571868  	73.996016 
500.536293  	74.019759 
501.500717  	73.396984 
502.465142  	72.529692 
503.429566  	72.766446 
504.393990  	73.058376 
505.358415  	73.343898 
506.322839  	73.149012 
507.287264  	73.513065 
508.251688  	75.331946 
509.216113  	77.105582 
510.180537  	78.083756 
511.144962  	78.838238 
512.109386  	79.594757 
513.073811  	80.057410 
514.038235  	80.169388 
515.002660  	79.506466 
515.967084  	78.829549 
516.931508  	78.641413 
517.895933  	79.189296 
518.860357  	79.382132 
519.824782  	79.055186 
520.789206  	79.655146 
521.753631  	80.346776 
522.718055  	80.347004 
523.682480  	80.219008 
524.646904  	80.248004 
525.611329  	79.871703 
526.575753  	79.934644 
527.540177  	80.874491 
528.504602  	81.217608 
529.469026  	80.699849 
530.433451  	80.623888 
531.397875  	80.951083 
532.362300  	81.255057 
533.326724  	81.535680 
534.291149  	81.517061 
535.255573  	81.659705 
536.219998  	81.811584 
537.184422  	82.167792 
538.148846  	82.052430 
539.113271  	82.382410 
540.077695  	82.161283 
541.042120  	82.353046 
542.006544  	82.616579 
542.970969  	82.776597 
543.935393  	82.841840 
544.899818  	82.618960 
545.864242  	82.442054 
546.828667  	82.363989 
547.793091  	82.026654 
548.757515  	82.418044 
549.721940  	82.875360 
550.686364  	83.052234 
551.650789  	83.279259 
552.615213  	82.966506 
553.579638  	82.938154 
554.544062  	83.002681 
555.508487  	83.283455 
556.472911  	83.192574 
557.437336  	82.890522 
558.401760  	83.009306 
559.366184  	83.099480 
560.330609  	82.955048 
561.295033  	82.960253 
562.259458  	82.930046 
563.223882  	82.513572 
564.188307  	82.420659 
565.152731  	82.662175 
566.117156  	82.667375 
567.081580  	82.286580 
568.046005  	82.192801 
569.010429  	81.999196 
569.974853  	82.123530 
570.939278  	82.149831 
571.903702  	82.278734 
572.868127  	82.374295 
573.832551  	82.082731 
574.796976  	82.032421 
575.761400  	81.706637 
576.725825  	81.920587 
577.690249  	82.211516 
578.654674  	82.221044 
579.619098  	82.125690 
580.583523  	81.768859 
581.547947  	82.124428 
582.512371  	82.447563 
583.476796  	82.114454 
584.441220  	81.881085 
585.405645  	82.007974 
586.370069  	82.409464 
587.334494  	82.543456 
588.298918  	82.391488 
589.263343  	82.166734 
590.227767  	82.178097 
591.192192  	81.791512 
592.156616  	81.435128 
593.121040  	82.001630 
594.085465  	82.320591 
595.049889  	82.258496 
596.014314  	82.204844 
596.978738  	82.188075 
597.943163  	82.070437 
598.907587  	81.758549 
599.872012  	81.353896 
600.836436  	81.494987 
601.800861  	81.724308 
602.765285  	81.608013 
603.729709  	81.526056 
604.694134  	81.641961 
605.658558  	81.749199 
606.622983  	81.819106 
607.587407  	81.589140 
608.551832  	81.484010 
609.516256  	81.559072 
610.480681  	81.458089 
611.445105  	81.289901 
612.409530  	81.441354 
613.373954  	81.600004 
614.338378  	81.361165 
615.302803  	81.051679 
616.267227  	80.967773 
617.231652  	81.193190 
618.196076  	81.201903 
619.160501  	80.985533 
620.124925  	80.788415 
621.089350  	80.827289 
622.053774  	80.845773 
623.018199  	81.020367 
623.982623  	80.776887 
624.947047  	80.548885 
625.911472  	80.370206 
626.875896  	80.444744 
627.840321  	80.203772 
628.804745  	79.924487 
629.769170  	79.263051 
630.733594  	78.625391 
631.698019  	78.497651 
632.662443  	78.758566 
633.626868  	79.247075 
634.591292  	79.833502 
635.555717  	79.992327 
636.520141  	80.358772 
637.484565  	80.434852 
638.448990  	80.377477 
639.413414  	80.239989 
640.377839  	80.202718 
641.342263  	80.102636 
642.306688  	79.874707 
643.271112  	79.807512 
644.235537  	79.816395 
645.199961  	79.824191 
646.164386  	79.893544 
647.128810  	79.927950 
648.093234  	79.839858 
649.057659  	79.575658 
650.022083  	79.516850 
650.986508  	79.465120 
651.950932  	79.290482 
652.915357  	79.127939 
653.879781  	79.148871 
654.844206  	79.214376 
655.808630  	79.045097 
656.773055  	78.773976 
657.737479  	78.778459 
658.701903  	78.562777 
659.666328  	78.361958 
660.630752  	78.398021 
661.595177  	78.377251 
662.559601  	78.205794 
663.524026  	78.007561 
664.488450  	77.885506 
665.452875  	77.804753 
666.417299  	77.779947 
667.381724  	78.024269 
668.346148  	77.938345 
669.310572  	77.176566 
670.274997  	76.891419 
671.239421  	76.752509 
672.203846  	76.679196 
673.168270  	76.438926 
674.132695  	76.061302 
675.097119  	75.773506 
676.061544  	75.328563 
677.025968  	74.993261 
677.990393  	74.769187 
678.954817  	74.511392 
679.919241  	74.280948 
680.883666  	74.270045 
681.848090  	74.214044 
682.812515  	74.161316 
683.776939  	73.959969 
684.741364  	73.764741 
685.705788  	73.640084 
686.670213  	73.514600 
687.634637  	73.206588 
688.599062  	72.912212 
689.563486  	72.482653 
690.527910  	72.132645 
691.492335  	71.770751 
692.456759  	71.373758 
693.421184  	70.842992 
694.385608  	70.375191 
695.350033  	69.708140 
696.314457  	68.867255 
697.278882  	67.821682 
698.243306  	66.776361 
699.207731  	65.872987 
700.172155  	65.057069 
701.136580  	64.098133 
702.101004  	63.207967 
703.065428  	62.520774 
704.029853  	61.939804 
704.994277  	61.234463 
705.958702  	60.495507 
706.923126  	59.661162 
707.887551  	58.773690 
708.851975  	57.909164 
709.816400  	56.943442 
710.780824  	55.908924 
711.745249  	54.901171 
712.709673  	53.699329 
713.674097  	52.420815 
714.638522  	51.167725 
715.602946  	49.974918 
716.567371  	48.615232 
717.531795  	47.113701 
718.496220  	45.580554 
719.460644  	44.159675 
720.425069  	43.003635 
721.389493  	42.120301 
722.353918  	41.334680 
723.318342  	40.791076 
724.282766  	40.879892 
725.247191  	41.877428 
726.211615  	43.619680 
727.176040  	45.884369 
728.140464  	48.272103 
729.104889  	50.869073 
730.069313  	53.513855 
731.033738  	56.262209 
731.998162  	59.055229 
732.962587  	61.986505 
733.927011  	64.916120 
734.891435  	67.780778 
735.855860  	70.604737 
736.820284  	73.372304 
737.784709  	75.914749 
738.749133  	78.153378 
739.713558  	80.031346 
740.677982  	81.657130 
741.642407  	82.933949 
742.606831  	83.923883 
743.571256  	84.473117 
744.535680  	84.704820 
745.500104  	84.912252 
746.464529  	85.031407 
747.428953  	84.983881 
748.393378  	85.012048 
749.357802  	84.968131 
750.322227  	84.865730 
751.286651  	84.725993 
752.251076  	84.615524 
753.215500  	84.536073 
754.179925  	84.341975 
755.144349  	84.089776 
756.108774  	84.029165 
757.073198  	83.926751 
758.037622  	83.717943 
759.002047  	83.460386 
759.966471  	83.301508 
760.930896  	83.144445 
761.895320  	82.964463 
762.859745  	82.899913 
763.824169  	82.810436 
764.788594  	82.486475 
765.753018  	82.255617 
766.717443  	82.047653 
767.681867  	81.833484 
768.646291  	81.575369 
769.610716  	81.417198 
770.575140  	81.242411 
771.539565  	81.055883 
772.503989  	80.823722 
773.468414  	80.635105 
774.432838  	80.409849 
775.397263  	80.166701 
776.361687  	79.992851 
777.326112  	79.949497 
778.290536  	79.699205 
779.254960  	79.474565 
780.219385  	79.193591 
781.183809  	79.189111 
782.148234  	78.847373 
783.112658  	78.619841 
784.077083  	78.206976 
785.041507  	77.813637 
786.005932  	77.563161 
786.970356  	77.111451 
787.934781  	76.551447 
788.899205  	76.137303 
789.863629  	75.823124 
790.828054  	75.481790 
791.792478  	75.175386 
792.756903  	75.117369 
793.721327  	75.423447 
794.685752  	76.084319 
795.650176  	76.992226 
796.614601  	77.784809 
797.579025  	78.382734 
798.543450  	78.621652 
799.507874  	78.651856 
800.472298  	78.682592 
801.436723  	78.584209 
802.401147  	78.388865 
803.365572  	78.251429 
804.329996  	78.219529 
805.294421  	78.178253 
806.258845  	78.083510 
807.223270  	78.026609 
808.187694  	78.027092 
809.152119  	78.019678 
810.116543  	77.867489 
811.080967  	77.650075 
812.045392  	77.563903 
813.009816  	77.584756 
813.974241  	77.637679 
814.938665  	77.612729 
815.903090  	77.512661 
816.867514  	77.362767 
817.831939  	77.237689 
818.796363  	77.183945 
819.760788  	77.174999 
820.725212  	77.101260 
821.689637  	76.874576 
822.654061  	76.651845 
823.618485  	76.563751 
824.582910  	76.377388 
825.547334  	76.063773 
826.511759  	75.815558 
827.476183  	75.657121 
828.440608  	75.499713 
829.405032  	75.210682 
830.369457  	74.936521 
831.333881  	74.740607 
832.298306  	74.424419 
833.262730  	74.071693 
834.227154  	73.742937 
835.191579  	73.432260 
836.156003  	73.126921 
837.120428  	72.720733 
838.084852  	72.222242 
839.049277  	71.837204 
840.013701  	71.500136 
840.978126  	71.108476 
841.942550  	70.784539 
842.906975  	70.407575 
843.871399  	69.978322 
844.835823  	69.612183 
845.800248  	69.364829 
846.764672  	69.321190 
847.729097  	69.542423 
848.693521  	69.943709 
849.657946  	70.528184 
850.622370  	71.165986 
851.586795  	71.699386 
852.551219  	72.026932 
853.515644  	72.344195 
854.480068  	72.661155 
855.444492  	72.850511 
856.408917  	72.969613 
857.373341  	73.118865 
858.337766  	73.282879 
859.302190  	73.438881 
860.266615  	73.466171 
861.231039  	73.318709 
862.195464  	73.163661 
863.159888  	72.893027 
864.124313  	72.507697 
865.088737  	71.927283 
866.053161  	71.183299 
867.017586  	70.202621 
867.982010  	68.866061 
868.946435  	67.177728 
869.910859  	65.093192 
870.875284  	62.981154 
871.839708  	61.824726 
872.804133  	62.378571 
873.768557  	64.394254 
874.732982  	66.647679 
875.697406  	68.441772 
876.661831  	69.741771 
877.626255  	70.824278 
878.590679  	71.804879 
879.555104  	72.673347 
880.519528  	73.404099 
881.483953  	73.996449 
882.448377  	74.548412 
883.412802  	75.060173 
884.377226  	75.467351 
885.341651  	75.786944 
886.306075  	75.979060 
887.270500  	76.127204 
888.234924  	76.284302 
889.199348  	76.325534 
890.163773  	76.275611 
891.128197  	76.238569 
892.092622  	76.179133 
893.057046  	76.093941 
894.021471  	76.004016 
894.985895  	75.959582 
895.950320  	75.863593 
896.914744  	75.738170 
897.879169  	75.665876 
898.843593  	75.654314 
899.808017  	75.682891 
900.772442  	75.768934 
901.736866  	75.853205 
902.701291  	75.971090 
903.665715  	76.126517 
904.630140  	76.275641 
905.594564  	76.400219 
906.558989  	76.579085 
907.523413  	76.774278 
908.487838  	76.875526 
909.452262  	76.935975 
910.416686  	77.068690 
911.381111  	77.167355 
912.345535  	77.125295 
913.309960  	77.104105 
914.274384  	77.090621 
915.238809  	77.069452 
916.203233  	77.027900 
917.167658  	76.995781 
918.132082  	76.939033 
919.096507  	76.905540 
920.060931  	76.834777 
921.025355  	76.719080 
921.989780  	76.635542 
922.954204  	76.534219 
923.918629  	76.396383 
924.883053  	76.303438 
925.847478  	76.247241 
926.811902  	76.127375 
927.776327  	75.986663 
928.740751  	75.835901 
929.705176  	75.744597 
930.669600  	75.631024 
931.634024  	75.503293 
932.598449  	75.383970 
933.562873  	75.274173 
934.527298  	75.139239 
935.491722  	74.928175 
936.456147  	74.809116 
937.420571  	74.729860 
938.384996  	74.541315 
939.349420  	74.341082 
940.313845  	74.214232 
941.278269  	74.111431 
942.242694  	73.940407 
943.207118  	73.717636 
944.171542  	73.553838 
945.135967  	73.412250 
946.100391  	73.218572 
947.064816  	73.003044 
948.029240  	72.814828 
948.993665  	72.626424 
949.958089  	72.436871 
950.922514  	72.260460 
951.886938  	72.085416 
952.851363  	71.845900 
953.815787  	71.554349 
954.780211  	71.330770 
955.744636  	71.141360 
956.709060  	70.903209 
957.673485  	70.643937 
958.637909  	70.401405 
959.602334  	70.157700 
960.566758  	69.858070 
961.531183  	69.531856 
962.495607  	69.248556 
963.460032  	69.038392 
964.424456  	68.800156 
965.388880  	68.511222 
966.353305  	68.284542 
967.317729  	68.166864 
968.282154  	68.068757 
969.246578  	67.991747 
970.211003  	68.063463 
971.175427  	68.260557 
972.139852  	68.518785 
973.104276  	68.905212 
974.068701  	69.358689 
975.033125  	69.800497 
975.997549  	70.192955 
976.961974  	70.576074 
977.926398  	70.946307 
978.890823  	71.225657 
979.855247  	71.359835 
980.819672  	71.427869 
981.784096  	71.484971 
982.748521  	71.490533 
983.712945  	71.400662 
984.677370  	71.222589 
985.641794  	71.052502 
986.606218  	70.878478 
987.570643  	70.712580 
988.535067  	70.560691 
989.499492  	70.458166 
990.463916  	70.359097 
991.428341  	70.234144 
992.392765  	70.060092 
993.357190  	69.864774 
994.321614  	69.693721 
995.286039  	69.499109 
996.250463  	69.278872 
997.214888  	69.000201 
998.179312  	68.756033 
999.143736  	68.496781 
1000.108161  	68.182206 
1001.072585  	67.885814 
1002.037010  	67.599213 
1003.001434  	67.274646 
1003.965859  	66.936120 
1004.930283  	66.552231 
1005.894708  	66.085580 
1006.859132  	65.594505 
1007.823557  	65.029375 
1008.787981  	64.403070 
1009.752405  	63.740992 
1010.716830  	62.967113 
1011.681254  	62.009238 
1012.645679  	60.896871 
1013.610103  	59.645788 
1014.574528  	58.328152 
1015.538952  	57.209702 
1016.503377  	56.627327 
1017.467801  	56.744875 
1018.432226  	57.579844 
1019.396650  	58.897601 
1020.361074  	60.464155 
1021.325499  	62.163849 
1022.289923  	63.916050 
1023.254348  	65.851532 
1024.218772  	68.039438 
1025.183197  	70.283073 
1026.147621  	72.285895 
1027.112046  	73.750496 
1028.076470  	74.506370 
1029.040895  	74.602519 
1030.005319  	74.239106 
1030.969743  	73.598921 
1031.934168  	72.925524 
1032.898592  	72.299143 
1033.863017  	71.646199 
1034.827441  	70.914706 
1035.791866  	70.271196 
1036.756290  	69.721232 
1037.720715  	69.210250 
1038.685139  	68.732060 
1039.649564  	68.359111 
1040.613988  	68.037355 
1041.578412  	67.719390 
1042.542837  	67.473014 
1043.507261  	67.287376 
1044.471686  	67.099169 
1045.436110  	66.921035 
1046.400535  	66.832457 
1047.364959  	66.788918 
1048.329384  	66.693722 
1049.293808  	66.605757 
1050.258233  	66.579270 
1051.222657  	66.552695 
1052.187081  	66.477773 
1053.151506  	66.316569 
1054.115930  	66.203380 
1055.080355  	66.104646 
1056.044779  	65.911847 
1057.009204  	65.713462 
1057.973628  	65.527872 
1058.938053  	65.329189 
1059.902477  	65.015938 
1060.866902  	64.620456 
1061.831326  	64.334445 
1062.795751  	64.008047 
1063.760175  	63.601454 
1064.724599  	63.214969 
1065.689024  	62.874148 
1066.653448  	62.441737 
1067.617873  	61.962247 
1068.582297  	61.499795 
1069.546722  	61.031718 
1070.511146  	60.529709 
1071.475571  	59.964357 
1072.439995  	59.352216 
1073.404420  	58.759308 
1074.368844  	58.090744 
1075.333268  	57.287636 
1076.297693  	56.484936 
1077.262117  	55.759045 
1078.226542  	55.000737 
1079.190966  	54.181090 
1080.155391  	53.367817 
1081.119815  	52.654601 
1082.084240  	52.002136 
1083.048664  	51.436956 
1084.013089  	50.976849 
1084.977513  	50.551014 
1085.941937  	50.119916 
1086.906362  	49.746156 
1087.870786  	49.463592 
1088.835211  	49.206461 
1089.799635  	48.943115 
1090.764060  	48.729119 
1091.728484  	48.610259 
1092.692909  	48.497745 
1093.657333  	48.383745 
1094.621758  	48.340993 
1095.586182  	48.452939 
1096.550606  	48.619946 
1097.515031  	48.804011 
1098.479455  	49.086330 
1099.443880  	49.472348 
1100.408304  	49.931927 
1101.372729  	50.448652 
1102.337153  	51.066573 
1103.301578  	51.724455 
1104.266002  	52.355876 
1105.230427  	52.992354 
1106.194851  	53.718180 
1107.159275  	54.487051 
1108.123700  	55.144025 
1109.088124  	55.709718 
1110.052549  	56.227222 
1111.016973  	56.680966 
1111.981398  	56.988933 
1112.945822  	57.217016 
1113.910247  	57.406653 
1114.874671  	57.487997 
1115.839096  	57.466419 
1116.803520  	57.434585 
1117.767945  	57.512074 
1118.732369  	57.723641 
1119.696793  	58.072584 
1120.661218  	58.517395 
1121.625642  	59.032984 
1122.590067  	59.687857 
1123.554491  	60.430732 
1124.518916  	61.236652 
1125.483340  	62.191692 
1126.447765  	63.235708 
1127.412189  	64.361671 
1128.376614  	65.547041 
1129.341038  	66.733981 
1130.305462  	67.977958 
1131.269887  	69.286670 
1132.234311  	70.555979 
1133.198736  	71.804946 
1134.163160  	73.010326 
1135.127585  	74.147952 
1136.092009  	75.232255 
1137.056434  	76.273073 
1138.020858  	77.243136 
1138.985283  	78.123805 
1139.949707  	78.913778 
1140.914131  	79.679612 
1141.878556  	80.390878 
1142.842980  	81.003316 
1143.807405  	81.595740 
1144.771829  	82.139135 
1145.736254  	82.617768 
1146.700678  	83.087461 
1147.665103  	83.480490 
1148.629527  	83.849055 
1149.593952  	84.193264 
1150.558376  	84.480175 
1151.522800  	84.704789 
1152.487225  	84.903457 
1153.451649  	85.116179 
1154.416074  	85.296160 
1155.380498  	85.371702 
1156.344923  	85.442019 
1157.309347  	85.523104 
1158.273772  	85.534865 
1159.238196  	85.473245 
1160.202621  	85.456819 
1161.167045  	85.425264 
1162.131469  	85.289572 
1163.095894  	85.101798 
1164.060318  	84.905796 
1165.024743  	84.674132 
1165.989167  	84.335403 
1166.953592  	83.920840 
1167.918016  	83.452842 
1168.882441  	82.920765 
1169.846865  	82.314845 
1170.811290  	81.721359 
1171.775714  	81.230233 
1172.740138  	80.835312 
1173.704563  	80.453370 
1174.668987  	80.119498 
1175.633412  	79.986770 
1176.597836  	79.921418 
1177.562261  	79.826080 
1178.526685  	79.730752 
1179.491110  	79.669570 
1180.455534  	79.610747 
1181.419959  	79.506117 
1182.384383  	79.348954 
1183.348808  	79.175212 
1184.313232  	78.943223 
1185.277656  	78.597740 
1186.242081  	78.186853 
1187.206505  	77.793162 
1188.170930  	77.376697 
1189.135354  	76.844081 
1190.099779  	76.276360 
1191.064203  	75.774256 
