##TITLE=No Description
##DATA TYPE=INFRARED SPECTRUM
##XUNITS=1/CM
##YUNITS=%T
400.236149  	128.089967 
401.200574  	106.971997 
402.164998  	94.697791 
403.129423  	80.257178 
404.093847  	85.239454 
405.058272  	103.202569 
406.022696  	102.270369 
406.987120  	97.292457 
407.951545  	103.795402 
408.915969  	99.323541 
409.880394  	101.400199 
410.844818  	104.178766 
411.809243  	103.306952 
412.773667  	94.918174 
413.738092  	86.215886 
414.702516  	78.540721 
415.666941  	80.148754 
416.631365  	85.244011 
417.595789  	89.880445 
418.560214  	91.753182 
419.524638  	86.738703 
420.489063  	85.815579 
421.453487  	86.422213 
422.417912  	87.824863 
423.382336  	88.664604 
424.346761  	87.079401 
425.311185  	83.724437 
426.275610  	83.683060 
427.240034  	85.580893 
428.204458  	86.141280 
429.168883  	86.268723 
430.133307  	86.859055 
431.097732  	85.549351 
432.062156  	83.106792 
433.026581  	80.767184 
433.991005  	82.655303 
434.955430  	83.527331 
435.919854  	82.779549 
436.884279  	83.289667 
437.848703  	84.661315 
438.813127  	84.611148 
439.777552  	84.137948 
440.741976  	84.074768 
441.706401  	84.888435 
442.670825  	86.132316 
443.635250  	86.068241 
444.599674  	85.989699 
445.564099  	85.894561 
446.528523  	86.374464 
447.492948  	86.605118 
448.457372  	87.620485 
449.421796  	88.107431 
450.386221  	87.503746 
451.350645  	86.581654 
452.315070  	85.776042 
453.279494  	86.437907 
454.243919  	87.204686 
455.208343  	86.534854 
456.172768  	86.287982 
457.137192  	87.013225 
458.101617  	86.670545 
459.066041  	86.512360 
460.030466  	86.741458 
460.994890  	86.196423 
461.959314  	86.184351 
462.923739  	86.462631 
463.888163  	86.227945 
464.852588  	85.840273 
465.817012  	86.520485 
466.781437  	86.898091 
467.745861  	85.821189 
468.710286  	85.441606 
469.674710  	85.096834 
470.639135  	84.983188 
471.603559  	85.501828 
472.567983  	85.763298 
473.532408  	85.470976 
474.496832  	85.390223 
475.461257  	85.767189 
476.425681  	85.686261 
477.390106  	85.209449 
478.354530  	84.845288 
479.318955  	84.573271 
480.283379  	84.673931 
481.247804  	85.588336 
482.212228  	85.165726 
483.176652  	85.798843 
484.141077  	86.747164 
485.105501  	85.228952 
486.069926  	84.340077 
487.034350  	85.281610 
487.998775  	85.359607 
488.963199  	85.119342 
489.927624  	84.896387 
490.892048  	84.128420 
491.856473  	83.640875 
492.820897  	84.282696 
493.785321  	84.235697 
494.749746  	83.442639 
495.714170  	82.943565 
496.678595  	82.654250 
497.643019  	82.678074 
498.607444  	82.913006 
499.571868  	82.188580 
500.536293  	81.742256 
501.500717  	81.608911 
502.465142  	80.693543 
503.429566  	80.625545 
504.393990  	80.710509 
505.358415  	80.126067 
506.322839  	79.419931 
507.287264  	79.852711 
508.251688  	81.247155 
509.216113  	82.516053 
510.180537  	83.012301 
511.144962  	83.606666 
512.109386  	84.442558 
513.073811  	85.106819 
514.038235  	85.121369 
515.002660  	84.811045 
515.967084  	84.515647 
516.931508  	84.612447 
517.895933  	85.347296 
518.860357  	85.337612 
519.824782  	84.774130 
520.789206  	84.970644 
521.753631  	85.443054 
522.718055  	85.478911 
523.682480  	85.119821 
524.646904  	84.955094 
525.611329  	85.123091 
526.575753  	85.084502 
527.540177  	85.599822 
528.504602  	86.222898 
529.469026  	86.059724 
530.433451  	85.806957 
531.397875  	86.110970 
532.362300  	86.523292 
533.326724  	86.973502 
534.291149  	86.672054 
535.255573  	86.590923 
536.219998  	87.185710 
537.184422  	87.840879 
538.148846  	87.539504 
539.113271  	87.105164 
540.077695  	87.352178 
541.042120  	87.609558 
542.006544  	87.765286 
542.970969  	87.699279 
543.935393  	87.804465 
544.899818  	87.637437 
545.864242  	87.778191 
546.828667  	87.742276 
547.793091  	87.655906 
548.757515  	87.746871 
549.721940  	88.296780 
550.686364  	88.467791 
551.650789  	88.347958 
552.615213  	88.187333 
553.579638  	88.491576 
554.544062  	88.454029 
555.508487  	88.479601 
556.472911  	88.573801 
557.437336  	88.372467 
558.401760  	88.261380 
559.366184  	88.555126 
560.330609  	88.437818 
561.295033  	88.371979 
562.259458  	88.484975 
563.223882  	88.238952 
564.188307  	88.124114 
565.152731  	88.551236 
566.117156  	88.753117 
567.081580  	88.350008 
568.046005  	88.213971 
569.010429  	88.264972 
569.974853  	88.372835 
570.939278  	88.473639 
571.903702  	88.348427 
572.868127  	88.218997 
573.832551  	88.219380 
574.796976  	88.320176 
575.761400  	87.880840 
576.725825  	87.920185 
577.690249  	88.111035 
578.654674  	88.326759 
579.619098  	88.364492 
580.583523  	88.197531 
581.547947  	88.467554 
582.512371  	88.510700 
583.476796  	88.377232 
584.441220  	88.344438 
585.405645  	88.343596 
586.370069  	88.508904 
587.334494  	88.650272 
588.298918  	88.747305 
589.263343  	88.592167 
590.227767  	88.567587 
591.192192  	88.171877 
592.156616  	87.994836 
593.121040  	88.401750 
594.085465  	88.719203 
595.049889  	88.684145 
596.014314  	88.500654 
596.978738  	88.380941 
597.943163  	88.438439 
598.907587  	88.394559 
599.872012  	88.263831 
600.836436  	88.391907 
601.800861  	88.424830 
602.765285  	88.336896 
603.729709  	88.341085 
604.694134  	88.301863 
605.658558  	88.340209 
606.622983  	88.337612 
607.587407  	88.182670 
608.551832  	88.235684 
609.516256  	88.393456 
610.480681  	88.278463 
611.445105  	88.167153 
612.409530  	88.316126 
613.373954  	88.466081 
614.338378  	88.306441 
615.302803  	88.108357 
616.267227  	88.085400 
617.231652  	88.195689 
618.196076  	88.152337 
619.160501  	88.058491 
620.124925  	87.897428 
621.089350  	87.917174 
622.053774  	87.876725 
623.018199  	87.822569 
623.982623  	87.815822 
624.947047  	87.809320 
625.911472  	87.904507 
626.875896  	87.772041 
627.840321  	87.534968 
628.804745  	87.272262 
629.769170  	86.897703 
630.733594  	86.295424 
631.698019  	86.004690 
632.662443  	86.109993 
633.626868  	86.520233 
634.591292  	86.965828 
635.555717  	87.145264 
636.520141  	87.408932 
637.484565  	87.522812 
638.448990  	87.547093 
639.413414  	87.532472 
640.377839  	87.574537 
641.342263  	87.494861 
642.306688  	87.178396 
643.271112  	87.079408 
644.235537  	87.070737 
645.199961  	86.988608 
646.164386  	87.038018 
647.128810  	87.056097 
648.093234  	86.993893 
649.057659  	86.894660 
650.022083  	86.862873 
650.986508  	86.797841 
651.950932  	86.602156 
652.915357  	86.483155 
653.879781  	86.448810 
654.844206  	86.531345 
655.808630  	86.511834 
656.773055  	86.324538 
657.737479  	86.256848 
658.701903  	86.060748 
659.666328  	85.823264 
660.630752  	85.758347 
661.595177  	85.713083 
662.559601  	85.516593 
663.524026  	85.409811 
664.488450  	85.405385 
665.452875  	85.300568 
666.417299  	85.194698 
667.381724  	85.461638 
668.346148  	85.556672 
669.310572  	84.665278 
670.274997  	84.143144 
671.239421  	83.940121 
672.203846  	83.842225 
673.168270  	83.583518 
674.132695  	83.160124 
675.097119  	82.859469 
676.061544  	82.528509 
677.025968  	82.111596 
677.990393  	81.788744 
678.954817  	81.543657 
679.919241  	81.260932 
680.883666  	81.139127 
681.848090  	81.192198 
682.812515  	81.199596 
683.776939  	80.985536 
684.741364  	80.748143 
685.705788  	80.429090 
686.670213  	80.317932 
687.634637  	80.083068 
688.599062  	79.654377 
689.563486  	79.135237 
690.527910  	78.647891 
691.492335  	78.145491 
692.456759  	77.421855 
693.421184  	76.577950 
694.385608  	75.881318 
695.350033  	75.091037 
696.314457  	74.099646 
697.278882  	72.987507 
698.243306  	71.799121 
699.207731  	70.637901 
700.172155  	69.405361 
701.136580  	68.057873 
702.101004  	66.898676 
703.065428  	65.949817 
704.029853  	64.964134 
704.994277  	63.795569 
705.958702  	62.597708 
706.923126  	61.302579 
707.887551  	59.887714 
708.851975  	58.361881 
709.816400  	56.708374 
710.780824  	55.067466 
711.745249  	53.217880 
712.709673  	51.204086 
713.674097  	49.168702 
714.638522  	47.068773 
715.602946  	44.849200 
716.567371  	42.510116 
717.531795  	40.368154 
718.496220  	38.462721 
719.460644  	36.898198 
720.425069  	36.006902 
721.389493  	35.847566 
722.353918  	36.259761 
723.318342  	37.438990 
724.282766  	39.515193 
725.247191  	42.208836 
726.211615  	45.274204 
727.176040  	48.528378 
728.140464  	51.688119 
729.104889  	54.747096 
730.069313  	57.673494 
731.033738  	60.666319 
731.998162  	63.672041 
732.962587  	66.677666 
733.927011  	69.778526 
734.891435  	72.767859 
735.855860  	75.657345 
736.820284  	78.474938 
737.784709  	81.069842 
738.749133  	83.363757 
739.713558  	85.337288 
740.677982  	87.069668 
741.642407  	88.395937 
742.606831  	89.446788 
743.571256  	90.306016 
744.535680  	90.926098 
745.500104  	91.429946 
746.464529  	91.680205 
747.428953  	91.827626 
748.393378  	92.029202 
749.357802  	92.145986 
750.322227  	92.195842 
751.286651  	92.222343 
752.251076  	92.219678 
753.215500  	92.222492 
754.179925  	92.147118 
755.144349  	92.032975 
756.108774  	92.006294 
757.073198  	92.052359 
758.037622  	91.997621 
759.002047  	91.815437 
759.966471  	91.747048 
760.930896  	91.724277 
761.895320  	91.756119 
762.859745  	91.880543 
763.824169  	91.789423 
764.788594  	91.616126 
765.753018  	91.415250 
766.717443  	91.179769 
767.681867  	90.959344 
768.646291  	90.776995 
769.610716  	90.717959 
770.575140  	90.705505 
771.539565  	90.610482 
772.503989  	90.417730 
773.468414  	90.352705 
774.432838  	90.372935 
775.397263  	90.232623 
776.361687  	90.165774 
777.326112  	90.057071 
778.290536  	89.884230 
779.254960  	89.750857 
780.219385  	89.586422 
781.183809  	89.460805 
782.148234  	89.387456 
783.112658  	89.336381 
784.077083  	88.937951 
785.041507  	88.588871 
786.005932  	88.350448 
786.970356  	87.823447 
787.934781  	87.215539 
788.899205  	86.856708 
789.863629  	86.451018 
790.828054  	85.972218 
791.792478  	85.478906 
792.756903  	85.340199 
793.721327  	85.516185 
794.685752  	85.893166 
795.650176  	86.537727 
796.614601  	87.310440 
797.579025  	87.946997 
798.543450  	88.281595 
799.507874  	88.362927 
800.472298  	88.556763 
801.436723  	88.684126 
802.401147  	88.603160 
803.365572  	88.552620 
804.329996  	88.541572 
805.294421  	88.538629 
806.258845  	88.517111 
807.223270  	88.556770 
808.187694  	88.559407 
809.152119  	88.585907 
810.116543  	88.649778 
811.080967  	88.661033 
812.045392  	88.600214 
813.009816  	88.647471 
813.974241  	88.703431 
814.938665  	88.716504 
815.903090  	88.703096 
816.867514  	88.625582 
817.831939  	88.649886 
818.796363  	88.717349 
819.760788  	88.747147 
820.725212  	88.739431 
821.689637  	88.594447 
822.654061  	88.448103 
823.618485  	88.312099 
824.582910  	88.159506 
825.547334  	87.978624 
826.511759  	87.887766 
827.476183  	87.713330 
828.440608  	87.498078 
829.405032  	87.295778 
830.369457  	87.115492 
831.333881  	86.928510 
832.298306  	86.643722 
833.262730  	86.331538 
834.227154  	86.020030 
835.191579  	85.679356 
836.156003  	85.281657 
837.120428  	84.831863 
838.084852  	84.383734 
839.049277  	83.979679 
840.013701  	83.452139 
840.978126  	82.900079 
841.942550  	82.433598 
842.906975  	81.836977 
843.871399  	81.137064 
844.835823  	80.472744 
845.800248  	79.953269 
846.764672  	79.634405 
847.729097  	79.680382 
848.693521  	79.777347 
849.657946  	79.989188 
850.622370  	80.471513 
851.586795  	81.004822 
852.551219  	81.291780 
853.515644  	81.617339 
854.480068  	81.914178 
855.444492  	81.998051 
856.408917  	82.143295 
857.373341  	82.390805 
858.337766  	82.640807 
859.302190  	82.757130 
860.266615  	82.779178 
861.231039  	82.802790 
862.195464  	82.732764 
863.159888  	82.493361 
864.124313  	82.098343 
865.088737  	81.490138 
866.053161  	80.660610 
867.017586  	79.412449 
867.982010  	77.590086 
868.946435  	75.146217 
869.910859  	71.985931 
870.875284  	68.657116 
871.839708  	66.692716 
872.804133  	67.536745 
873.768557  	70.688879 
874.732982  	74.141193 
875.697406  	76.822934 
876.661831  	78.745958 
877.626255  	80.256550 
878.590679  	81.542819 
879.555104  	82.661626 
880.519528  	83.607060 
881.483953  	84.457604 
882.448377  	85.323390 
883.412802  	86.123837 
884.377226  	86.682413 
885.341651  	87.146109 
886.306075  	87.535578 
887.270500  	87.883216 
888.234924  	88.212722 
889.199348  	88.338352 
890.163773  	88.381867 
891.128197  	88.441404 
892.092622  	88.511604 
893.057046  	88.481284 
894.021471  	88.429147 
894.985895  	88.423356 
895.950320  	88.332658 
896.914744  	88.233848 
897.879169  	88.228630 
898.843593  	88.247721 
899.808017  	88.336976 
900.772442  	88.464416 
901.736866  	88.535432 
902.701291  	88.665076 
903.665715  	88.888068 
904.630140  	89.069066 
905.594564  	89.203226 
906.558989  	89.442922 
907.523413  	89.725701 
908.487838  	89.878250 
909.452262  	90.025834 
910.416686  	90.233215 
911.381111  	90.414228 
912.345535  	90.470128 
913.309960  	90.518556 
914.274384  	90.606763 
915.238809  	90.679140 
916.203233  	90.725116 
917.167658  	90.765570 
918.132082  	90.818628 
919.096507  	90.867597 
920.060931  	90.913750 
921.025355  	90.944913 
921.989780  	90.920796 
922.954204  	90.871848 
923.918629  	90.807198 
924.883053  	90.789020 
925.847478  	90.839356 
926.811902  	90.809584 
927.776327  	90.738053 
928.740751  	90.673092 
929.705176  	90.669705 
930.669600  	90.662531 
931.634024  	90.608219 
932.598449  	90.551917 
933.562873  	90.499024 
934.527298  	90.497657 
935.491722  	90.410441 
936.456147  	90.301310 
937.420571  	90.262089 
938.384996  	90.190790 
939.349420  	90.123001 
940.313845  	90.088933 
941.278269  	90.060206 
942.242694  	89.951847 
943.207118  	89.826337 
944.171542  	89.747660 
945.135967  	89.665086 
946.100391  	89.534626 
947.064816  	89.398783 
948.029240  	89.299580 
948.993665  	89.185789 
949.958089  	89.041137 
950.922514  	88.923214 
951.886938  	88.839976 
952.851363  	88.618517 
953.815787  	88.382491 
954.780211  	88.236608 
955.744636  	88.091601 
956.709060  	87.877958 
957.673485  	87.618234 
958.637909  	87.354070 
959.602334  	87.058020 
960.566758  	86.739443 
961.531183  	86.390890 
962.495607  	86.019306 
963.460032  	85.674486 
964.424456  	85.274324 
965.388880  	84.784247 
966.353305  	84.307101 
967.317729  	83.924035 
968.282154  	83.516996 
969.246578  	83.099997 
970.211003  	82.788365 
971.175427  	82.621626 
972.139852  	82.594649 
973.104276  	82.730168 
974.068701  	83.034903 
975.033125  	83.456723 
975.997549  	83.918501 
976.961974  	84.394139 
977.926398  	84.855668 
978.890823  	85.253000 
979.855247  	85.584912 
980.819672  	85.899530 
981.784096  	86.182451 
982.748521  	86.427885 
983.712945  	86.573434 
984.677370  	86.617725 
985.641794  	86.638484 
986.606218  	86.636982 
987.570643  	86.594411 
988.535067  	86.563080 
989.499492  	86.629670 
990.463916  	86.686297 
991.428341  	86.731502 
992.392765  	86.788500 
993.357190  	86.838124 
994.321614  	86.847830 
995.286039  	86.825459 
996.250463  	86.774539 
997.214888  	86.683922 
998.179312  	86.571180 
999.143736  	86.362287 
1000.108161  	86.143264 
1001.072585  	85.990085 
1002.037010  	85.818647 
1003.001434  	85.558290 
1003.965859  	85.265096 
1004.930283  	84.923533 
1005.894708  	84.479613 
1006.859132  	83.923189 
1007.823557  	83.224235 
1008.787981  	82.418335 
1009.752405  	81.478226 
1010.716830  	80.253551 
1011.681254  	78.678265 
1012.645679  	76.762276 
1013.610103  	74.373034 
1014.574528  	71.674801 
1015.538952  	69.212282 
1016.503377  	67.499877 
1017.467801  	66.730965 
1018.432226  	66.831619 
1019.396650  	67.671991 
1020.361074  	68.972300 
1021.325499  	70.362904 
1022.289923  	71.583199 
1023.254348  	72.657529 
1024.218772  	73.933338 
1025.183197  	75.685575 
1026.147621  	77.676700 
1027.112046  	79.424755 
1028.076470  	80.711271 
1029.040895  	81.500125 
1030.005319  	81.923195 
1030.969743  	82.136553 
1031.934168  	82.249716 
1032.898592  	82.272802 
1033.863017  	82.186899 
1034.827441  	81.993061 
1035.791866  	81.782329 
1036.756290  	81.597768 
1037.720715  	81.401817 
1038.685139  	81.229983 
1039.649564  	81.108972 
1040.613988  	80.976847 
1041.578412  	80.796764 
1042.542837  	80.669563 
1043.507261  	80.697524 
1044.471686  	80.747626 
1045.436110  	80.819673 
1046.400535  	80.939021 
1047.364959  	81.075638 
1048.329384  	81.158312 
1049.293808  	81.265091 
1050.258233  	81.466912 
1051.222657  	81.680186 
1052.187081  	81.834924 
1053.151506  	81.953189 
1054.115930  	82.082774 
1055.080355  	82.084226 
1056.044779  	82.017618 
1057.009204  	81.919897 
1057.973628  	81.850101 
1058.938053  	81.716404 
1059.902477  	81.406636 
1060.866902  	81.077240 
1061.831326  	80.825645 
1062.795751  	80.467196 
1063.760175  	79.989489 
1064.724599  	79.467106 
1065.689024  	78.930001 
1066.653448  	78.385347 
1067.617873  	77.750945 
1068.582297  	77.015727 
1069.546722  	76.275613 
1070.511146  	75.498968 
1071.475571  	74.643802 
1072.439995  	73.727286 
1073.404420  	72.751104 
1074.368844  	71.656264 
1075.333268  	70.447175 
1076.297693  	69.185931 
1077.262117  	67.861754 
1078.226542  	66.494248 
1079.190966  	65.106145 
1080.155391  	63.726307 
1081.119815  	62.421178 
1082.084240  	61.211409 
1083.048664  	60.165894 
1084.013089  	59.293923 
1084.977513  	58.481592 
1085.941937  	57.699017 
1086.906362  	56.998380 
1087.870786  	56.369473 
1088.835211  	55.788268 
1089.799635  	55.230219 
1090.764060  	54.721778 
1091.728484  	54.300072 
1092.692909  	53.976099 
1093.657333  	53.649166 
1094.621758  	53.362469 
1095.586182  	53.230744 
1096.550606  	53.184284 
1097.515031  	53.206385 
1098.479455  	53.362228 
1099.443880  	53.642361 
1100.408304  	53.967124 
1101.372729  	54.335309 
1102.337153  	54.826812 
1103.301578  	55.410695 
1104.266002  	56.000950 
1105.230427  	56.634813 
1106.194851  	57.312948 
1107.159275  	58.024764 
1108.123700  	58.712170 
1109.088124  	59.340452 
1110.052549  	59.882840 
1111.016973  	60.300601 
1111.981398  	60.660929 
1112.945822  	60.958251 
1113.910247  	61.224535 
1114.874671  	61.392032 
1115.839096  	61.380397 
1116.803520  	61.223477 
1117.767945  	60.996075 
1118.732369  	60.781929 
1119.696793  	60.671170 
1120.661218  	60.619087 
1121.625642  	60.608227 
1122.590067  	60.695668 
1123.554491  	60.872189 
1124.518916  	61.109622 
1125.483340  	61.449944 
1126.447765  	61.870200 
1127.412189  	62.375956 
1128.376614  	63.010046 
1129.341038  	63.742793 
1130.305462  	64.577480 
1131.269887  	65.591558 
1132.234311  	66.710311 
1133.198736  	67.952923 
1134.163160  	69.288366 
1135.127585  	70.661293 
1136.092009  	72.037161 
1137.056434  	73.424242 
1138.020858  	74.809512 
1138.985283  	76.125009 
1139.949707  	77.330983 
1140.914131  	78.474924 
1141.878556  	79.547565 
1142.842980  	80.518508 
1143.807405  	81.427562 
1144.771829  	82.307563 
1145.736254  	83.106676 
1146.700678  	83.827811 
1147.665103  	84.477624 
1148.629527  	85.075717 
1149.593952  	85.614209 
1150.558376  	86.113792 
1151.522800  	86.571908 
1152.487225  	86.984425 
1153.451649  	87.347906 
1154.416074  	87.652596 
1155.380498  	87.899671 
1156.344923  	88.149185 
1157.309347  	88.366212 
1158.273772  	88.541277 
1159.238196  	88.645254 
1160.202621  	88.742562 
1161.167045  	88.841467 
1162.131469  	88.873792 
1163.095894  	88.860350 
1164.060318  	88.857349 
1165.024743  	88.823979 
1165.989167  	88.700000 
1166.953592  	88.514929 
1167.918016  	88.264083 
1168.882441  	87.926638 
1169.846865  	87.550311 
1170.811290  	87.170468 
1171.775714  	86.838778 
1172.740138  	86.628246 
1173.704563  	86.462078 
1174.668987  	86.306123 
1175.633412  	86.323280 
1176.597836  	86.444060 
1177.562261  	86.571919 
1178.526685  	86.713274 
1179.491110  	86.882335 
1180.455534  	87.087699 
1181.419959  	87.311171 
1182.384383  	87.497930 
1183.348808  	87.639491 
1184.313232  	87.793179 
1185.277656  	87.869508 
1186.242081  	87.883784 
1187.206505  	87.908997 
1188.170930  	87.876047 
1189.135354  	87.780393 
1190.099779  	87.665983 
1191.064203  	87.566704 
