##TITLE=No Description
##DATA TYPE=INFRARED SPECTRUM
##XUNITS=1/CM
##YUNITS=%T
400.236149  	135.541209 
401.200574  	112.406499 
402.164998  	78.440488 
403.129423  	59.570795 
404.093847  	68.975903 
405.058272  	79.641423 
406.022696  	91.225411 
406.987120  	98.914361 
407.951545  	90.184010 
408.915969  	83.396096 
409.880394  	91.989410 
410.844818  	106.331119 
411.809243  	106.240661 
412.773667  	97.814877 
413.738092  	86.843834 
414.702516  	71.961070 
415.666941  	69.504628 
416.631365  	81.114690 
417.595789  	85.059304 
418.560214  	85.965556 
419.524638  	94.129677 
420.489063  	90.467498 
421.453487  	87.274629 
422.417912  	91.049107 
423.382336  	93.115147 
424.346761  	89.970360 
425.311185  	85.705320 
426.275610  	85.613060 
427.240034  	85.527303 
428.204458  	86.030157 
429.168883  	86.077977 
430.133307  	83.964969 
431.097732  	80.705737 
432.062156  	79.964550 
433.026581  	79.733195 
433.991005  	80.503736 
434.955430  	81.544653 
435.919854  	82.634511 
436.884279  	81.300557 
437.848703  	81.394611 
438.813127  	82.963254 
439.777552  	83.730174 
440.741976  	82.586458 
441.706401  	81.997283 
442.670825  	85.543156 
443.635250  	87.439169 
444.599674  	87.145791 
445.564099  	86.243081 
446.528523  	86.526702 
447.492948  	87.390637 
448.457372  	88.821336 
449.421796  	87.168497 
450.386221  	86.259456 
451.350645  	86.673310 
452.315070  	85.587077 
453.279494  	86.521147 
454.243919  	87.563910 
455.208343  	86.910062 
456.172768  	86.176126 
457.137192  	86.416672 
458.101617  	86.497166 
459.066041  	86.170132 
460.030466  	86.027755 
460.994890  	86.276060 
461.959314  	86.081731 
462.923739  	85.321674 
463.888163  	84.647704 
464.852588  	84.377094 
465.817012  	85.584563 
466.781437  	85.807781 
467.745861  	84.950079 
468.710286  	83.994495 
469.674710  	83.249601 
470.639135  	83.662662 
471.603559  	84.380952 
472.567983  	85.271864 
473.532408  	85.650258 
474.496832  	85.167662 
475.461257  	84.959198 
476.425681  	85.004361 
477.390106  	85.513002 
478.354530  	85.754679 
479.318955  	84.621148 
480.283379  	84.147110 
481.247804  	84.308616 
482.212228  	84.515792 
483.176652  	85.399559 
484.141077  	85.895139 
485.105501  	84.908218 
486.069926  	84.041472 
487.034350  	84.570700 
487.998775  	85.628409 
488.963199  	85.244400 
489.927624  	84.829336 
490.892048  	84.880976 
491.856473  	84.515760 
492.820897  	84.389722 
493.785321  	83.959223 
494.749746  	82.857362 
495.714170  	82.563775 
496.678595  	83.033931 
497.643019  	82.999886 
498.607444  	82.512886 
499.571868  	81.436392 
500.536293  	81.279567 
501.500717  	81.621169 
502.465142  	81.143614 
503.429566  	80.945203 
504.393990  	80.465953 
505.358415  	80.304293 
506.322839  	80.063740 
507.287264  	79.978368 
508.251688  	80.899944 
509.216113  	82.340152 
510.180537  	83.354301 
511.144962  	83.900301 
512.109386  	84.397419 
513.073811  	85.004113 
514.038235  	85.363215 
515.002660  	85.213138 
515.967084  	84.758406 
516.931508  	84.881554 
517.895933  	85.437388 
518.860357  	85.295861 
519.824782  	85.047375 
520.789206  	85.266682 
521.753631  	85.795865 
522.718055  	86.133404 
523.682480  	85.810196 
524.646904  	85.384559 
525.611329  	85.252030 
526.575753  	85.279072 
527.540177  	85.884252 
528.504602  	86.398858 
529.469026  	86.571520 
530.433451  	86.502851 
531.397875  	86.546383 
532.362300  	86.578834 
533.326724  	87.064602 
534.291149  	87.110603 
535.255573  	87.237830 
536.219998  	87.348359 
537.184422  	87.627026 
538.148846  	87.227540 
539.113271  	86.978038 
540.077695  	87.251591 
541.042120  	87.611921 
542.006544  	87.744285 
542.970969  	87.835185 
543.935393  	88.242516 
544.899818  	88.349558 
545.864242  	88.422817 
546.828667  	88.233226 
547.793091  	88.136299 
548.757515  	88.318964 
549.721940  	88.741745 
550.686364  	88.654745 
551.650789  	88.722982 
552.615213  	88.522469 
553.579638  	88.757479 
554.544062  	88.858669 
555.508487  	88.657212 
556.472911  	88.370138 
557.437336  	88.202385 
558.401760  	88.263370 
559.366184  	88.709468 
560.330609  	88.751556 
561.295033  	88.673837 
562.259458  	88.809170 
563.223882  	88.634383 
564.188307  	88.421917 
565.152731  	88.628274 
566.117156  	88.658801 
567.081580  	88.395041 
568.046005  	88.404720 
569.010429  	88.484588 
569.974853  	88.479088 
570.939278  	88.444081 
571.903702  	88.484840 
572.868127  	88.431506 
573.832551  	88.358484 
574.796976  	88.511730 
575.761400  	88.239840 
576.725825  	88.377752 
577.690249  	88.546022 
578.654674  	88.505343 
579.619098  	88.393054 
580.583523  	88.346497 
581.547947  	88.657344 
582.512371  	88.846097 
583.476796  	88.814017 
584.441220  	88.607313 
585.405645  	88.526511 
586.370069  	88.794414 
587.334494  	88.873848 
588.298918  	88.973721 
589.263343  	88.953107 
590.227767  	88.835214 
591.192192  	88.551381 
592.156616  	88.478944 
593.121040  	88.701285 
594.085465  	88.851185 
595.049889  	88.781243 
596.014314  	88.767655 
596.978738  	88.936885 
597.943163  	88.965226 
598.907587  	88.841944 
599.872012  	88.582649 
600.836436  	88.619664 
601.800861  	88.922562 
602.765285  	88.988875 
603.729709  	88.941107 
604.694134  	88.912719 
605.658558  	88.789291 
606.622983  	88.782551 
607.587407  	88.703796 
608.551832  	88.652632 
609.516256  	88.705963 
610.480681  	88.633927 
611.445105  	88.510380 
612.409530  	88.744733 
613.373954  	88.907219 
614.338378  	88.608503 
615.302803  	88.457297 
616.267227  	88.309228 
617.231652  	88.487418 
618.196076  	88.617936 
619.160501  	88.501413 
620.124925  	88.106373 
621.089350  	88.017397 
622.053774  	88.117475 
623.018199  	88.466692 
623.982623  	88.173966 
624.947047  	88.020524 
625.911472  	88.055588 
626.875896  	87.876036 
627.840321  	87.732430 
628.804745  	87.682306 
629.769170  	87.355637 
630.733594  	86.727775 
631.698019  	86.332805 
632.662443  	86.437387 
633.626868  	86.822203 
634.591292  	87.266381 
635.555717  	87.462696 
636.520141  	87.682826 
637.484565  	87.743927 
638.448990  	87.884063 
639.413414  	87.860188 
640.377839  	87.656116 
641.342263  	87.513492 
642.306688  	87.281152 
643.271112  	87.353548 
644.235537  	87.493115 
645.199961  	87.414591 
646.164386  	87.383727 
647.128810  	87.301579 
648.093234  	87.232386 
649.057659  	87.288550 
650.022083  	87.274585 
650.986508  	87.248531 
651.950932  	86.991934 
652.915357  	86.732913 
653.879781  	86.765838 
654.844206  	86.843456 
655.808630  	86.774422 
656.773055  	86.561354 
657.737479  	86.476659 
658.701903  	86.312208 
659.666328  	86.090621 
660.630752  	86.002522 
661.595177  	85.978240 
662.559601  	85.913549 
663.524026  	85.768332 
664.488450  	85.649061 
665.452875  	85.465556 
666.417299  	85.351106 
667.381724  	85.395845 
668.346148  	85.611508 
669.310572  	84.876749 
670.274997  	84.430269 
671.239421  	84.321752 
672.203846  	84.191718 
673.168270  	83.913823 
674.132695  	83.530403 
675.097119  	83.221508 
676.061544  	82.908507 
677.025968  	82.571360 
677.990393  	82.246250 
678.954817  	81.963391 
679.919241  	81.721198 
680.883666  	81.561333 
681.848090  	81.447543 
682.812515  	81.378500 
683.776939  	81.246297 
684.741364  	81.116915 
685.705788  	80.923139 
686.670213  	80.662483 
687.634637  	80.272816 
688.599062  	79.898928 
689.563486  	79.477475 
690.527910  	78.997757 
691.492335  	78.426063 
692.456759  	77.707855 
693.421184  	76.963127 
694.385608  	76.382001 
695.350033  	75.556823 
696.314457  	74.651725 
697.278882  	73.559339 
698.243306  	72.401315 
699.207731  	71.167768 
700.172155  	69.955264 
701.136580  	68.677288 
702.101004  	67.525830 
703.065428  	66.545486 
704.029853  	65.618755 
704.994277  	64.553774 
705.958702  	63.402425 
706.923126  	62.102874 
707.887551  	60.662110 
708.851975  	59.266034 
709.816400  	57.762761 
710.780824  	56.064139 
711.745249  	54.346847 
712.709673  	52.602327 
713.674097  	50.623801 
714.638522  	48.451108 
715.602946  	46.236059 
716.567371  	44.000602 
717.531795  	41.927025 
718.496220  	40.012656 
719.460644  	38.556111 
720.425069  	37.657640 
721.389493  	37.491449 
722.353918  	37.788697 
723.318342  	38.753196 
724.282766  	40.682802 
725.247191  	43.358775 
726.211615  	46.324347 
727.176040  	49.455366 
728.140464  	52.445111 
729.104889  	55.342387 
730.069313  	58.187003 
731.033738  	61.181391 
731.998162  	64.114901 
732.962587  	67.047591 
733.927011  	69.965291 
734.891435  	72.921265 
735.855860  	75.847834 
736.820284  	78.617839 
737.784709  	81.224090 
738.749133  	83.536324 
739.713558  	85.432635 
740.677982  	87.116442 
741.642407  	88.444394 
742.606831  	89.575248 
743.571256  	90.427850 
744.535680  	90.971122 
745.500104  	91.436852 
746.464529  	91.810656 
747.428953  	91.955181 
748.393378  	92.069456 
749.357802  	92.131136 
750.322227  	92.161009 
751.286651  	92.203054 
752.251076  	92.314661 
753.215500  	92.362828 
754.179925  	92.278900 
755.144349  	92.144611 
756.108774  	92.113874 
757.073198  	92.106407 
758.037622  	91.991597 
759.002047  	91.790573 
759.966471  	91.791107 
760.930896  	91.761555 
761.895320  	91.735301 
762.859745  	91.721295 
763.824169  	91.759177 
764.788594  	91.652654 
765.753018  	91.471880 
766.717443  	91.253546 
767.681867  	91.007546 
768.646291  	90.770179 
769.610716  	90.660519 
770.575140  	90.584815 
771.539565  	90.618045 
772.503989  	90.498770 
773.468414  	90.322255 
774.432838  	90.263421 
775.397263  	90.304443 
776.361687  	90.214772 
777.326112  	90.145319 
778.290536  	90.096749 
779.254960  	89.876694 
780.219385  	89.654146 
781.183809  	89.625492 
782.148234  	89.425364 
783.112658  	89.212886 
784.077083  	88.890820 
785.041507  	88.584899 
786.005932  	88.474456 
786.970356  	87.960313 
787.934781  	87.312017 
788.899205  	86.926871 
789.863629  	86.689475 
790.828054  	86.184075 
791.792478  	85.739242 
792.756903  	85.565292 
793.721327  	85.737181 
794.685752  	86.175317 
795.650176  	86.836963 
796.614601  	87.466095 
797.579025  	88.063998 
798.543450  	88.306523 
799.507874  	88.435031 
800.472298  	88.654150 
801.436723  	88.786349 
802.401147  	88.793729 
803.365572  	88.751860 
804.329996  	88.741820 
805.294421  	88.645801 
806.258845  	88.552500 
807.223270  	88.645307 
808.187694  	88.777413 
809.152119  	88.776369 
810.116543  	88.741643 
811.080967  	88.778902 
812.045392  	88.815388 
813.009816  	88.792368 
813.974241  	88.807055 
814.938665  	88.879749 
815.903090  	88.851238 
816.867514  	88.750073 
817.831939  	88.737489 
818.796363  	88.765146 
819.760788  	88.773150 
820.725212  	88.757779 
821.689637  	88.605707 
822.654061  	88.505959 
823.618485  	88.377990 
824.582910  	88.247494 
825.547334  	88.021979 
826.511759  	87.837580 
827.476183  	87.716625 
828.440608  	87.609915 
829.405032  	87.394604 
830.369457  	87.178801 
831.333881  	86.967442 
832.298306  	86.679656 
833.262730  	86.349138 
834.227154  	86.128080 
835.191579  	85.837574 
836.156003  	85.388785 
837.120428  	84.906133 
838.084852  	84.408452 
839.049277  	83.959199 
840.013701  	83.524898 
840.978126  	82.993356 
841.942550  	82.499379 
842.906975  	81.985309 
843.871399  	81.333327 
844.835823  	80.698919 
845.800248  	80.199116 
846.764672  	79.831568 
847.729097  	79.785938 
848.693521  	79.933866 
849.657946  	80.274435 
850.622370  	80.731485 
851.586795  	81.236295 
852.551219  	81.496800 
853.515644  	81.689135 
854.480068  	81.918914 
855.444492  	82.128820 
856.408917  	82.305816 
857.373341  	82.512401 
858.337766  	82.697826 
859.302190  	82.826754 
860.266615  	82.922545 
861.231039  	82.973052 
862.195464  	82.901920 
863.159888  	82.638512 
864.124313  	82.207739 
865.088737  	81.634597 
866.053161  	80.779077 
867.017586  	79.544543 
867.982010  	77.851315 
868.946435  	75.508383 
869.910859  	72.465210 
870.875284  	69.299502 
871.839708  	67.398009 
872.804133  	68.164586 
873.768557  	71.106819 
874.732982  	74.391190 
875.697406  	76.966747 
876.661831  	78.826347 
877.626255  	80.273956 
878.590679  	81.550711 
879.555104  	82.631169 
880.519528  	83.542022 
881.483953  	84.433709 
882.448377  	85.228897 
883.412802  	85.959181 
884.377226  	86.640922 
885.341651  	87.140480 
886.306075  	87.529956 
887.270500  	87.859135 
888.234924  	88.135275 
889.199348  	88.216019 
890.163773  	88.212145 
891.128197  	88.308542 
892.092622  	88.387222 
893.057046  	88.308109 
894.021471  	88.236373 
894.985895  	88.218733 
895.950320  	88.191979 
896.914744  	88.120310 
897.879169  	88.125778 
898.843593  	88.223217 
899.808017  	88.310737 
900.772442  	88.375412 
901.736866  	88.406823 
902.701291  	88.535249 
903.665715  	88.788245 
904.630140  	88.968415 
905.594564  	89.088429 
906.558989  	89.270854 
907.523413  	89.523407 
908.487838  	89.736846 
909.452262  	89.893494 
910.416686  	90.069623 
911.381111  	90.228260 
912.345535  	90.269784 
913.309960  	90.338926 
914.274384  	90.443890 
915.238809  	90.498524 
916.203233  	90.522968 
917.167658  	90.605166 
918.132082  	90.667851 
919.096507  	90.689235 
920.060931  	90.723262 
921.025355  	90.745959 
921.989780  	90.730679 
922.954204  	90.700094 
923.918629  	90.659432 
924.883053  	90.640464 
925.847478  	90.616032 
926.811902  	90.573634 
927.776327  	90.548160 
928.740751  	90.504188 
929.705176  	90.480604 
930.669600  	90.431384 
931.634024  	90.353187 
932.598449  	90.344609 
933.562873  	90.324916 
934.527298  	90.274833 
935.491722  	90.159981 
936.456147  	90.107950 
937.420571  	90.137811 
938.384996  	90.069412 
939.349420  	89.924675 
940.313845  	89.843254 
941.278269  	89.799716 
942.242694  	89.694454 
943.207118  	89.581661 
944.171542  	89.519281 
945.135967  	89.450467 
946.100391  	89.332098 
947.064816  	89.178963 
948.029240  	89.068417 
948.993665  	88.975259 
949.958089  	88.866285 
950.922514  	88.715642 
951.886938  	88.591723 
952.851363  	88.403206 
953.815787  	88.160446 
954.780211  	87.990335 
955.744636  	87.857435 
956.709060  	87.650331 
957.673485  	87.404906 
958.637909  	87.145212 
959.602334  	86.840275 
960.566758  	86.504641 
961.531183  	86.173552 
962.495607  	85.814545 
963.460032  	85.504333 
964.424456  	85.122869 
965.388880  	84.615741 
966.353305  	84.152092 
967.317729  	83.811848 
968.282154  	83.434036 
969.246578  	83.036211 
970.211003  	82.735348 
971.175427  	82.557323 
972.139852  	82.535490 
973.104276  	82.708410 
974.068701  	83.013845 
975.033125  	83.422378 
975.997549  	83.855658 
976.961974  	84.286715 
977.926398  	84.732677 
978.890823  	85.144552 
979.855247  	85.469625 
980.819672  	85.736705 
981.784096  	86.002404 
982.748521  	86.239295 
983.712945  	86.362209 
984.677370  	86.401336 
985.641794  	86.435929 
986.606218  	86.438316 
987.570643  	86.395194 
988.535067  	86.370714 
989.499492  	86.402081 
990.463916  	86.484605 
991.428341  	86.578316 
992.392765  	86.597275 
993.357190  	86.608143 
994.321614  	86.603917 
995.286039  	86.574502 
996.250463  	86.536518 
997.214888  	86.439429 
998.179312  	86.308771 
999.143736  	86.123577 
1000.108161  	85.942445 
1001.072585  	85.761942 
1002.037010  	85.565319 
1003.001434  	85.308659 
1003.965859  	85.005381 
1004.930283  	84.679003 
1005.894708  	84.242016 
1006.859132  	83.649255 
1007.823557  	82.954540 
1008.787981  	82.161538 
1009.752405  	81.201660 
1010.716830  	79.984522 
1011.681254  	78.455542 
1012.645679  	76.543114 
1013.610103  	74.198702 
1014.574528  	71.595963 
1015.538952  	69.225284 
1016.503377  	67.573122 
1017.467801  	66.828758 
1018.432226  	66.975954 
1019.396650  	67.837518 
1020.361074  	69.132153 
1021.325499  	70.567317 
1022.289923  	71.848279 
1023.254348  	73.000628 
1024.218772  	74.395862 
1025.183197  	76.150406 
1026.147621  	78.072193 
1027.112046  	79.789186 
1028.076470  	81.030163 
1029.040895  	81.798265 
1030.005319  	82.190378 
1030.969743  	82.353459 
1031.934168  	82.424848 
1032.898592  	82.383236 
1033.863017  	82.240422 
1034.827441  	82.042765 
1035.791866  	81.860797 
1036.756290  	81.666017 
1037.720715  	81.460682 
1038.685139  	81.254868 
1039.649564  	81.108887 
1040.613988  	80.943227 
1041.578412  	80.764130 
1042.542837  	80.689909 
1043.507261  	80.684664 
1044.471686  	80.684246 
1045.436110  	80.703819 
1046.400535  	80.833483 
1047.364959  	80.991312 
1048.329384  	81.088502 
1049.293808  	81.226866 
1050.258233  	81.441160 
1051.222657  	81.624425 
1052.187081  	81.739338 
1053.151506  	81.826830 
1054.115930  	81.963124 
1055.080355  	82.031060 
1056.044779  	81.962842 
1057.009204  	81.850933 
1057.973628  	81.734061 
1058.938053  	81.619415 
1059.902477  	81.370380 
1060.866902  	81.009482 
1061.831326  	80.747914 
1062.795751  	80.406785 
1063.760175  	79.898533 
1064.724599  	79.359948 
1065.689024  	78.834917 
1066.653448  	78.282157 
1067.617873  	77.652712 
1068.582297  	76.978797 
1069.546722  	76.304226 
1070.511146  	75.523939 
1071.475571  	74.626677 
1072.439995  	73.712875 
1073.404420  	72.769569 
1074.368844  	71.683212 
1075.333268  	70.446684 
1076.297693  	69.167025 
1077.262117  	67.881926 
1078.226542  	66.559591 
1079.190966  	65.208694 
1080.155391  	63.855634 
1081.119815  	62.610263 
1082.084240  	61.459134 
1083.048664  	60.411353 
1084.013089  	59.539086 
1084.977513  	58.748738 
1085.941937  	57.993174 
1086.906362  	57.341853 
1087.870786  	56.770397 
1088.835211  	56.217104 
1089.799635  	55.664953 
1090.764060  	55.184744 
1091.728484  	54.815417 
1092.692909  	54.471744 
1093.657333  	54.128004 
1094.621758  	53.859766 
1095.586182  	53.719006 
1096.550606  	53.660112 
1097.515031  	53.697430 
1098.479455  	53.865512 
1099.443880  	54.099627 
1100.408304  	54.425352 
1101.372729  	54.842189 
1102.337153  	55.351038 
1103.301578  	55.912669 
1104.266002  	56.535950 
1105.230427  	57.180692 
1106.194851  	57.866946 
1107.159275  	58.576859 
1108.123700  	59.274333 
1109.088124  	59.931089 
1110.052549  	60.496218 
1111.016973  	60.937025 
1111.981398  	61.274862 
1112.945822  	61.581949 
1113.910247  	61.838063 
1114.874671  	61.919564 
1115.839096  	61.833202 
1116.803520  	61.680097 
1117.767945  	61.508972 
1118.732369  	61.328640 
1119.696793  	61.262396 
1120.661218  	61.272757 
1121.625642  	61.284140 
1122.590067  	61.419129 
1123.554491  	61.666908 
1124.518916  	61.949045 
1125.483340  	62.309081 
1126.447765  	62.763344 
1127.412189  	63.320310 
1128.376614  	63.955179 
1129.341038  	64.685527 
1130.305462  	65.562648 
1131.269887  	66.556026 
1132.234311  	67.636189 
1133.198736  	68.846046 
1134.163160  	70.142149 
1135.127585  	71.483431 
1136.092009  	72.816941 
1137.056434  	74.140475 
1138.020858  	75.491230 
1138.985283  	76.768119 
1139.949707  	77.922642 
1140.914131  	79.033366 
1141.878556  	80.079844 
1142.842980  	81.003214 
1143.807405  	81.886021 
1144.771829  	82.744933 
1145.736254  	83.515510 
1146.700678  	84.221863 
1147.665103  	84.818190 
1148.629527  	85.394828 
1149.593952  	85.960050 
1150.558376  	86.460408 
1151.522800  	86.875712 
1152.487225  	87.245382 
1153.451649  	87.596580 
1154.416074  	87.915111 
1155.380498  	88.170560 
1156.344923  	88.380057 
1157.309347  	88.594754 
1158.273772  	88.788152 
1159.238196  	88.880489 
1160.202621  	88.992310 
1161.167045  	89.094416 
1162.131469  	89.119965 
1163.095894  	89.084584 
1164.060318  	89.051451 
1165.024743  	89.000550 
1165.989167  	88.883343 
1166.953592  	88.690915 
1167.918016  	88.433007 
1168.882441  	88.122961 
1169.846865  	87.737370 
1170.811290  	87.323100 
1171.775714  	86.997470 
1172.740138  	86.773485 
1173.704563  	86.570850 
1174.668987  	86.412545 
1175.633412  	86.446253 
1176.597836  	86.569961 
1177.562261  	86.692428 
1178.526685  	86.833056 
1179.491110  	87.018726 
1180.455534  	87.174581 
1181.419959  	87.384607 
1182.384383  	87.568564 
1183.348808  	87.703176 
1184.313232  	87.808210 
1185.277656  	87.829851 
1186.242081  	87.837082 
1187.206505  	87.866923 
1188.170930  	87.854931 
1189.135354  	87.768342 
1190.099779  	87.623455 
1191.064203  	87.487305 
